

 Wavenumbers:   820. - 50000. cm-1, ATM      1
 LEVEL PRESSURE   UPWARD FLUX   DIFDOWN FLUX  DIRDOWN FLUX  DOWNWARD FLUX   NET FLUX    HEATING RATE
          mb          W/m2          W/m2          W/m2        W/m2          W/m2       degree/day
  51    .06700      396.1797        0.0000      617.8126      617.8126     221.632928       0.00000
  50    .07753      396.1793        0.0014      617.7948      617.7962     221.616913      12.83694
  49    .09103      396.1788        0.0030      617.7782      617.7812     221.602368       9.09094
  48    0.1069      396.1784        0.0050      617.7588      617.7638     221.585458       9.00090
  47    0.1255      396.1779        0.0072      617.7352      617.7424     221.564531       9.48735
  46    0.1487      396.1773        0.0101      617.7026      617.7127     221.535379      10.62627
  45    0.1794      396.1766        0.0139      617.6545      617.6684     221.491871      11.94409
  44    0.2165      396.1759        0.0185      617.5928      617.6113     221.435409      12.84397
  43    0.2613      396.1752        0.0238      617.5133      617.5371     221.361941      13.84852
  42    0.3336      396.1744        0.0327      617.3703      617.4030     221.228645      15.54093
  41    0.4307      396.1737        0.0443      617.1679      617.2122     221.038461      16.53612
  40    0.5894      396.1737        0.0631      616.8134      616.8765     220.702825      17.84870
  39     1.339      396.1922        0.1480      614.9754      615.1234     218.931189      19.94541
  38     1.782      396.2163        0.1958      614.0075      614.2034     217.987075      17.97440
  37     2.292      396.2094        0.4084      596.1896      596.5980     200.388560     291.47731
  36     2.964      396.2631        0.5271      593.6332      594.1603     197.897147      31.27475
  35     3.853      396.3693        0.6425      591.7225      592.3650     195.995626      18.04579
  34     5.035      396.5392        0.7765      590.0040      590.7805     194.241302      12.53216
  33     6.613      396.7813        0.9447      588.3456      589.2903     192.509037       9.26069
  32     8.786      397.0980        1.1651      586.6762      587.8412     190.743220       6.85779
  31     11.80      397.5089        1.4753      584.8466      586.3219     188.813020       5.40395
  30     15.07      397.9000        1.8057      583.2533      585.0590     187.158947       4.27049
  29     18.79      398.2972        2.1767      581.7066      583.8833     185.586053       3.56623
  28     23.16      398.7095        2.6079      580.1139      582.7218     184.012394       3.04295
  27     28.12      399.1203        3.0988      578.4857      581.5844     182.464151       2.63191
  26     33.73      399.4915        3.6461      576.8756      580.5217     181.030253       2.15590
  25     40.54      399.8367        4.3054      575.1109      579.4163     179.579631       1.79966
  24     48.69      400.1528        5.0966      573.1954      578.2920     178.139169       1.49065
  23     57.69      400.4030        5.9616      571.2858      577.2474     176.844380       1.21367
  22     68.43      400.5956        6.9865      569.2134      576.1998     175.604222       0.97493
  21     81.20      400.6786        8.2016      566.9972      575.1988     174.520198       0.71631
  20     96.49      400.6417        9.6406      564.5918      574.2324     173.590720       0.51300
  19     114.6      400.5528       11.3335      561.6200      572.9535     172.400696       0.55566
  18     136.5      400.4002       13.3159      558.3011      571.6170     171.216751       0.45525
  17     162.9      400.1770       15.6424      554.5458      570.1883     170.011285       0.38532
  16     196.4      399.7951       18.6104      549.9107      568.5211     168.725997       0.32352
  15     218.7      399.5142       20.5290      546.8124      567.3414     167.827183       0.34125
  14     243.0      399.1966       22.5871      543.5260      566.1131     166.916546       0.31584
  13     269.0      398.8428       24.7864      539.8025      564.5889     165.746015       0.37971
  12     297.5      398.4543       27.1275      535.5152      562.6428     164.188504       0.46194
  11     328.5      398.0406       29.6167      530.4943      560.1110     162.070423       0.57590
  10     361.9      397.6074       32.2499      524.5481      556.7980     159.190626       0.72862
   9     398.1      397.1617       35.0317      517.4907      552.5225     155.360790       0.89227
   8     437.6      396.7175       37.9606      509.2193      547.1799     150.462354       1.04732
   7     480.5      396.2931       41.0346      499.7560      540.7905     144.497451       1.17148
   6     533.0      395.8669       44.7295      487.6795      532.4089     136.542074       1.27977
   5     589.8      395.5609       48.6063      474.6179      523.2242     127.663228       1.31791
   4     651.6      395.4621       52.6552      460.7301      513.3853     117.923209       1.33197
   3     718.7      395.6701       56.8678      446.4025      503.2703     107.600169       1.29732
   2     792.3      396.3889       61.2269      431.4855      492.7124      96.323535       1.29330
   1     891.5      398.4118       66.8731      412.2767      479.1497      80.737928       1.32626
   0    1013.0      402.9757       73.3175      391.2209      464.5384      61.562674       1.33144



 Wavenumbers:  2600. -  3250. cm-1, ATM      1
 LEVEL PRESSURE   UPWARD FLUX   DIFDOWN FLUX  DIRDOWN FLUX  DOWNWARD FLUX   NET FLUX    HEATING RATE
          mb          W/m2          W/m2          W/m2        W/m2          W/m2       degree/day
  51    .06700        0.0258        0.0000        5.4450        5.4450       5.419200       0.00000
  50    .07753        0.0258        0.0000        5.4450        5.4450       5.419192       0.00640
  49    .09103        0.0258        0.0000        5.4450        5.4450       5.419182       0.00627
  48    0.1069        0.0258        0.0000        5.4450        5.4450       5.419170       0.00613
  47    0.1255        0.0258        0.0000        5.4450        5.4450       5.419157       0.00599
  46    0.1487        0.0258        0.0000        5.4450        5.4450       5.419141       0.00608
  45    0.1794        0.0258        0.0000        5.4450        5.4450       5.419118       0.00625
  44    0.2165        0.0258        0.0000        5.4449        5.4449       5.419091       0.00612
  43    0.2613        0.0258        0.0000        5.4449        5.4449       5.419059       0.00600
  42    0.3336        0.0258        0.0000        5.4448        5.4448       5.419006       0.00617
  41    0.4307        0.0258        0.0000        5.4448        5.4448       5.418935       0.00620
  40    0.5894        0.0258        0.0000        5.4446        5.4446       5.418815       0.00637
  39     1.339        0.0258        0.0000        5.4439        5.4439       5.418108       0.00797
  38     1.782        0.0258        0.0000        5.4434        5.4434       5.417565       0.01034
  37     2.292        0.0258        0.0000        5.4427        5.4427       5.416849       0.01186
  36     2.964        0.0258        0.0000        5.4416        5.4416       5.415810       0.01304
  35     3.853        0.0258        0.0000        5.4402        5.4402       5.414333       0.01402
  34     5.035        0.0258        0.0000        5.4381        5.4381       5.412277       0.01468
  33     6.613        0.0258        0.0000        5.4353        5.4353       5.409496       0.01487
  32     8.786        0.0258        0.0000        5.4317        5.4317       5.405864       0.01411
  31     11.80        0.0258        0.0000        5.4269        5.4269       5.401084       0.01338
  30     15.07        0.0258        0.0000        5.4224        5.4224       5.396558       0.01169
  29     18.79        0.0258        0.0000        5.4180        5.4180       5.392147       0.01000
  28     23.16        0.0258        0.0000        5.4135        5.4135       5.387662       0.00867
  27     28.12        0.0258        0.0000        5.4088        5.4088       5.383015       0.00790
  26     33.73        0.0258        0.0000        5.4036        5.4036       5.377776       0.00788
  25     40.54        0.0258        0.0000        5.3966        5.3967       5.370837       0.00861
  24     48.69        0.0258        0.0000        5.3872        5.3872       5.361364       0.00980
  23     57.69        0.0258        0.0000        5.3754        5.3754       5.349585       0.01104
  22     68.43        0.0258        0.0000        5.3599        5.3599       5.334104       0.01217
  21     81.20        0.0258        0.0000        5.3401        5.3401       5.314280       0.01310
  20     96.49        0.0258        0.0000        5.3155        5.3155       5.289727       0.01355
  19     114.6        0.0258        0.0000        5.2626        5.2626       5.236821       0.02470
  18     136.5        0.0258        0.0000        5.2102        5.2102       5.184402       0.02016
  17     162.9        0.0258        0.0001        5.1590        5.1590       5.133225       0.01636
  16     196.4        0.0258        0.0001        5.1036        5.1036       5.077829       0.01394
  15     218.7        0.0258        0.0001        5.0663        5.0664       5.040580       0.01414
  14     243.0        0.0258        0.0001        5.0307        5.0307       5.004932       0.01236
  13     269.0        0.0258        0.0001        4.9889        4.9889       4.963139       0.01356
  12     297.5        0.0258        0.0001        4.9380        4.9381       4.912275       0.01509
  11     328.5        0.0258        0.0001        4.8735        4.8736       4.847764       0.01754
  10     361.9        0.0259        0.0001        4.7887        4.7888       4.762922       0.02147
   9     398.1        0.0259        0.0001        4.6756        4.6757       4.649799       0.02636
   8     437.6        0.0260        0.0001        4.5267        4.5269       4.500861       0.03184
   7     480.5        0.0261        0.0001        4.3411        4.3412       4.315087       0.03649
   6     533.0        0.0263        0.0002        4.0894        4.0896       4.063266       0.04051
   5     589.8        0.0266        0.0002        3.8183        3.8184       3.791835       0.04029
   4     651.6        0.0271        0.0002        3.5382        3.5383       3.511290       0.03837
   3     718.7        0.0277        0.0002        3.2501        3.2502       3.222521       0.03629
   2     792.3        0.0287        0.0002        2.9464        2.9466       2.917896       0.03494
   1     891.5        0.0306        0.0002        2.5653        2.5655       2.534919       0.03259
   0    1013.0        0.0343        0.0002        2.1824        2.1826       2.148324       0.02684



 Wavenumbers:  3250. -  4000. cm-1, ATM      1
 LEVEL PRESSURE   UPWARD FLUX   DIFDOWN FLUX  DIRDOWN FLUX  DOWNWARD FLUX   NET FLUX    HEATING RATE
          mb          W/m2          W/m2          W/m2        W/m2          W/m2       degree/day
  51    .06700        0.0003        0.0000        9.1795        9.1795       9.179257       0.00000
  50    .07753        0.0003        0.0000        9.1747        9.1747       9.174388       3.90287
  49    .09103        0.0003        0.0000        9.1713        9.1713       9.171068       2.07467
  48    0.1069        0.0003        0.0000        9.1689        9.1689       9.168662       1.28112
  47    0.1255        0.0003        0.0000        9.1668        9.1668       9.166541       0.96122
  46    0.1487        0.0003        0.0000        9.1645        9.1645       9.164269       0.82829
  45    0.1794        0.0003        0.0000        9.1619        9.1619       9.161599       0.73288
  44    0.2165        0.0003        0.0000        9.1592        9.1592       9.158911       0.61167
  43    0.2613        0.0003        0.0000        9.1565        9.1565       9.156213       0.50841
  42    0.3336        0.0003        0.0000        9.1528        9.1528       9.152517       0.43101
  41    0.4307        0.0003        0.0000        9.1487        9.1487       9.148418       0.35634
  40    0.5894        0.0003        0.0000        9.1428        9.1428       9.142526       0.31334
  39     1.339        0.0003        0.0000        9.1196        9.1196       9.119344       0.26099
  38     1.782        0.0003        0.0000        9.1090        9.1090       9.108760       0.20149
  37     2.292        0.0003        0.0000        5.4999        5.4999       5.499577      59.77749
  36     2.964        0.0003        0.0000        5.1298        5.1298       5.129495       4.64565
  35     3.853        0.0003        0.0000        4.9366        4.9366       4.936355       1.83294
  34     5.035        0.0003        0.0000        4.8100        4.8100       4.809735       0.90452
  33     6.613        0.0003        0.0000        4.7198        4.7198       4.719481       0.48250
  32     8.786        0.0003        0.0000        4.6528        4.6528       4.652484       0.26019
  31     11.80        0.0003        0.0000        4.5993        4.5993       4.598977       0.14980
  30     15.07        0.0003        0.0000        4.5636        4.5636       4.563311       0.09208
  29     18.79        0.0003        0.0000        4.5364        4.5365       4.536171       0.06153
  28     23.16        0.0003        0.0000        4.5129        4.5129       4.512606       0.04557
  27     28.12        0.0003        0.0000        4.4908        4.4908       4.490535       0.03752
  26     33.73        0.0003        0.0000        4.4697        4.4698       4.469491       0.03164
  25     40.54        0.0003        0.0000        4.4369        4.4369       4.436642       0.04075
  24     48.69        0.0003        0.0000        4.4026        4.4027       4.402416       0.03542
  23     57.69        0.0003        0.0000        4.3699        4.3699       4.369645       0.03072
  22     68.43        0.0003        0.0000        4.3367        4.3367       4.336483       0.02607
  21     81.20        0.0002        0.0001        4.3030        4.3031       4.302804       0.02225
  20     96.49        0.0002        0.0001        4.2680        4.2681       4.267854       0.01929
  19     114.6        0.0002        0.0001        4.2285        4.2286       4.228342       0.01845
  18     136.5        0.0002        0.0001        4.1832        4.1833       4.183066       0.01741
  17     162.9        0.0002        0.0001        4.1312        4.1314       4.131156       0.01659
  16     196.4        0.0002        0.0001        4.0600        4.0601       4.059919       0.01793
  15     218.7        0.0002        0.0001        3.9862        3.9864       3.986211       0.02798
  14     243.0        0.0001        0.0002        3.9071        3.9073       3.907129       0.02743
  13     269.0        0.0001        0.0002        3.7850        3.7852       3.785079       0.03959
  12     297.5        0.0001        0.0002        3.6083        3.6085       3.608378       0.05241
  11     328.5        0.0001        0.0002        3.3727        3.3729       3.372795       0.06405
  10     361.9        0.0001        0.0002        3.0824        3.0826       3.082530       0.07344
   9     398.1        0.0001        0.0002        2.7495        2.7496       2.749571       0.07757
   8     437.6        0.0001        0.0002        2.3947        2.3949       2.394813       0.07585
   7     480.5        0.0000        0.0002        2.0284        2.0286       2.028532       0.07194
   6     533.0        0.0000        0.0001        1.6125        1.6126       1.612572       0.06691
   5     589.8        0.0000        0.0001        1.2126        1.2127       1.212655       0.05936
   4     651.6        0.0000        0.0001        0.8390        0.8391       0.839114       0.05108
   3     718.7        0.0000        0.0001        0.5350        0.5351       0.535049       0.03821
   2     792.3        0.0000        0.0000        0.2997        0.2997       0.299680       0.02699
   1     891.5        0.0001        0.0000        0.1059        0.1059       0.105813       0.01650
   0    1013.0        0.0005        0.0000        0.0185        0.0185       0.018049       0.00609



 Wavenumbers:  4000. -  4650. cm-1, ATM      1
 LEVEL PRESSURE   UPWARD FLUX   DIFDOWN FLUX  DIRDOWN FLUX  DOWNWARD FLUX   NET FLUX    HEATING RATE
          mb          W/m2          W/m2          W/m2        W/m2          W/m2       degree/day
  51    .06700        1.2071        0.0000       10.7795       10.7795       9.572420       0.00000
  50    .07753        1.2071        0.0000       10.7795       10.7795       9.572419       0.00080
  49    .09103        1.2071        0.0000       10.7795       10.7795       9.572418       0.00078
  48    0.1069        1.2071        0.0000       10.7795       10.7795       9.572417       0.00076
  47    0.1255        1.2071        0.0000       10.7795       10.7795       9.572415       0.00075
  46    0.1487        1.2071        0.0000       10.7795       10.7795       9.572413       0.00076
  45    0.1794        1.2071        0.0000       10.7795       10.7795       9.572410       0.00078
  44    0.2165        1.2071        0.0000       10.7795       10.7795       9.572407       0.00076
  43    0.2613        1.2071        0.0000       10.7795       10.7795       9.572403       0.00075
  42    0.3336        1.2071        0.0000       10.7795       10.7795       9.572396       0.00077
  41    0.4307        1.2071        0.0000       10.7795       10.7795       9.572387       0.00077
  40    0.5894        1.2071        0.0000       10.7795       10.7795       9.572372       0.00079
  39     1.339        1.2071        0.0000       10.7794       10.7794       9.572283       0.00100
  38     1.782        1.2071        0.0000       10.7793       10.7793       9.572214       0.00133
  37     2.292        1.2071        0.0000       10.7792       10.7792       9.572120       0.00155
  36     2.964        1.2071        0.0000       10.7791       10.7791       9.571980       0.00176
  35     3.853        1.2071        0.0000       10.7789       10.7789       9.571773       0.00197
  34     5.035        1.2071        0.0000       10.7785       10.7786       9.571467       0.00218
  33     6.613        1.2071        0.0000       10.7781       10.7781       9.571017       0.00241
  32     8.786        1.2071        0.0000       10.7774       10.7774       9.570353       0.00258
  31     11.80        1.2071        0.0001       10.7763       10.7764       9.569310       0.00292
  30     15.07        1.2071        0.0001       10.7751       10.7752       9.568086       0.00316
  29     18.79        1.2071        0.0001       10.7736       10.7737       9.566607       0.00335
  28     23.16        1.2070        0.0001       10.7717       10.7718       9.564772       0.00355
  27     28.12        1.2070        0.0001       10.7695       10.7696       9.562552       0.00377
  26     33.73        1.2070        0.0001       10.7667       10.7668       9.559816       0.00411
  25     40.54        1.2070        0.0002       10.7629       10.7631       9.556109       0.00460
  24     48.69        1.2070        0.0002       10.7580       10.7582       9.551173       0.00511
  23     57.69        1.2070        0.0002       10.7521       10.7523       9.545327       0.00548
  22     68.43        1.2069        0.0003       10.7447       10.7450       9.538010       0.00575
  21     81.20        1.2069        0.0003       10.7356       10.7359       9.529014       0.00594
  20     96.49        1.2069        0.0004       10.7246       10.7250       9.518085       0.00603
  19     114.6        1.2070        0.0004       10.6983       10.6987       9.491752       0.01230
  18     136.5        1.2071        0.0005       10.6719       10.6724       9.465342       0.01016
  17     162.9        1.2072        0.0006       10.6437       10.6443       9.437034       0.00905
  16     196.4        1.2075        0.0007       10.6082       10.6089       9.401432       0.00896
  15     218.7        1.2077        0.0008       10.5813       10.5821       9.374418       0.01026
  14     243.0        1.2080        0.0009       10.5525       10.5534       9.345429       0.01005
  13     269.0        1.2084        0.0010       10.5158       10.5168       9.308402       0.01201
  12     297.5        1.2090        0.0011       10.4678       10.4689       9.259904       0.01438
  11     328.5        1.2098        0.0012       10.4030       10.4042       9.194388       0.01781
  10     361.9        1.2110        0.0013       10.3158       10.3171       9.106174       0.02232
   9     398.1        1.2124        0.0014       10.2005       10.2020       8.989607       0.02716
   8     437.6        1.2143        0.0016       10.0556       10.0572       8.842933       0.03136
   7     480.5        1.2167        0.0017        9.8860        9.8877       8.670988       0.03377
   6     533.0        1.2206        0.0018        9.6705        9.6723       8.451774       0.03526
   5     589.8        1.2262        0.0020        9.4240        9.4260       8.199788       0.03740
   4     651.6        1.2345        0.0021        9.1160        9.1181       7.883620       0.04324
   3     718.7        1.2466        0.0023        8.7442        8.7464       7.499847       0.04823
   2     792.3        1.2646        0.0024        8.3258        8.3282       7.063610       0.05003
   1     891.5        1.2996        0.0025        7.8010        7.8036       6.504002       0.04762
   0    1013.0        1.3653        0.0027        7.2641        7.2668       5.901456       0.04184



 Wavenumbers:  4650. -  5150. cm-1, ATM      1
 LEVEL PRESSURE   UPWARD FLUX   DIFDOWN FLUX  DIRDOWN FLUX  DOWNWARD FLUX   NET FLUX    HEATING RATE
          mb          W/m2          W/m2          W/m2        W/m2          W/m2       degree/day
  51    .06700        0.3059        0.0000       10.2033       10.2033       9.897449       0.00000
  50    .07753        0.3059        0.0000       10.2031       10.2031       9.897213       0.18913
  49    .09103        0.3059        0.0000       10.2028       10.2028       9.896918       0.18440
  48    0.1069        0.3059        0.0000       10.2025       10.2025       9.896581       0.17942
  47    0.1255        0.3059        0.0000       10.2021       10.2021       9.896197       0.17436
  46    0.1487        0.3059        0.0000       10.2016       10.2016       9.895715       0.17546
  45    0.1794        0.3059        0.0000       10.2010       10.2010       9.895065       0.17861
  44    0.2165        0.3059        0.0000       10.2002       10.2002       9.894305       0.17288
  43    0.2613        0.3059        0.0000       10.1993       10.1993       9.893419       0.16700
  42    0.3336        0.3059        0.0000       10.1979       10.1979       9.891985       0.16712
  41    0.4307        0.3059        0.0000       10.1960       10.1960       9.890144       0.16012
  40    0.5894        0.3059        0.0000       10.1932       10.1932       9.887268       0.15292
  39     1.339        0.3059        0.0000       10.1815       10.1816       9.875670       0.13058
  38     1.782        0.3059        0.0000       10.1760       10.1760       9.870138       0.10532
  37     2.292        0.3059        0.0000       10.1705       10.1706       9.864679       0.09042
  36     2.964        0.3059        0.0000       10.1646       10.1646       9.858753       0.07439
  35     3.853        0.3059        0.0000       10.1584       10.1584       9.852536       0.05900
  34     5.035        0.3059        0.0000       10.1520       10.1521       9.846199       0.04527
  33     6.613        0.3058        0.0000       10.1455       10.1456       9.839741       0.03452
  32     8.786        0.3058        0.0001       10.1385       10.1386       9.832732       0.02722
  31     11.80        0.3058        0.0001       10.1294       10.1295       9.823696       0.02530
  30     15.07        0.3058        0.0001       10.1195       10.1196       9.813825       0.02549
  29     18.79        0.3058        0.0001       10.1075       10.1076       9.801828       0.02720
  28     23.16        0.3058        0.0001       10.0922       10.0923       9.786540       0.02956
  27     28.12        0.3057        0.0002       10.0730       10.0732       9.767468       0.03242
  26     33.73        0.3057        0.0002       10.0499       10.0501       9.744403       0.03468
  25     40.54        0.3057        0.0002       10.0200       10.0202       9.714542       0.03705
  24     48.69        0.3057        0.0003        9.9818        9.9821       9.676431       0.03944
  23     57.69        0.3056        0.0003        9.9383        9.9386       9.632971       0.04074
  22     68.43        0.3056        0.0004        9.8856        9.8859       9.580349       0.04137
  21     81.20        0.3056        0.0005        9.8232        9.8237       9.518113       0.04112
  20     96.49        0.3055        0.0005        9.7515        9.7520       9.446514       0.03952
  19     114.6        0.3055        0.0006        9.6664        9.6670       9.361502       0.03969
  18     136.5        0.3055        0.0007        9.5760        9.5767       9.271204       0.03472
  17     162.9        0.3055        0.0009        9.4808        9.4816       9.176152       0.03038
  16     196.4        0.3055        0.0010        9.3712        9.3722       9.066751       0.02754
  15     218.7        0.3055        0.0011        9.3016        9.3027       8.997215       0.02640
  14     243.0        0.3056        0.0012        9.2282        9.2294       8.923841       0.02545
  13     269.0        0.3057        0.0014        9.1450        9.1464       8.840722       0.02696
  12     297.5        0.3059        0.0015        9.0479        9.0494       8.743527       0.02883
  11     328.5        0.3061        0.0016        8.9343        8.9360       8.629841       0.03091
  10     361.9        0.3065        0.0018        8.7986        8.8004       8.493836       0.03441
   9     398.1        0.3071        0.0019        8.6370        8.6389       8.331828       0.03774
   8     437.6        0.3078        0.0021        8.4435        8.4455       8.137734       0.04150
   7     480.5        0.3089        0.0022        8.2147        8.2169       7.908054       0.04511
   6     533.0        0.3105        0.0024        7.9094        7.9118       7.601243       0.04936
   5     589.8        0.3129        0.0025        7.5631        7.5656       7.252635       0.05174
   4     651.6        0.3164        0.0026        7.1855        7.1881       6.871741       0.05209
   3     718.7        0.3214        0.0027        6.7928        6.7955       6.474161       0.04996
   2     792.3        0.3285        0.0029        6.3973        6.4002       6.071739       0.04615
   1     891.5        0.3418        0.0030        5.9067        5.9097       5.567860       0.04288
   0    1013.0        0.3660        0.0031        5.3796        5.3827       5.016704       0.03827



 Wavenumbers:  5150. -  6150. cm-1, ATM      1
 LEVEL PRESSURE   UPWARD FLUX   DIFDOWN FLUX  DIRDOWN FLUX  DOWNWARD FLUX   NET FLUX    HEATING RATE
          mb          W/m2          W/m2          W/m2        W/m2          W/m2       degree/day
  51    .06700        2.5675        0.0000       25.5798       25.5798      23.012313       0.00000
  50    .07753        2.5675        0.0000       25.5798       25.5798      23.012313       0.00019
  49    .09103        2.5675        0.0000       25.5798       25.5798      23.012313       0.00018
  48    0.1069        2.5675        0.0000       25.5798       25.5798      23.012312       0.00018
  47    0.1255        2.5675        0.0000       25.5798       25.5798      23.012312       0.00017
  46    0.1487        2.5675        0.0000       25.5798       25.5798      23.012311       0.00018
  45    0.1794        2.5675        0.0000       25.5798       25.5798      23.012311       0.00018
  44    0.2165        2.5675        0.0000       25.5798       25.5798      23.012310       0.00018
  43    0.2613        2.5675        0.0000       25.5798       25.5798      23.012309       0.00018
  42    0.3336        2.5675        0.0000       25.5798       25.5798      23.012307       0.00018
  41    0.4307        2.5675        0.0000       25.5798       25.5798      23.012305       0.00018
  40    0.5894        2.5675        0.0000       25.5798       25.5798      23.012302       0.00019
  39     1.339        2.5675        0.0000       25.5797       25.5798      23.012281       0.00024
  38     1.782        2.5675        0.0000       25.5797       25.5797      23.012264       0.00032
  37     2.292        2.5683        0.0001       22.4461       22.4462      19.877901      51.91323
  36     2.964        2.5686        0.0001       22.0395       22.0396      19.470999       5.10784
  35     3.853        2.5688        0.0001       21.8235       21.8236      19.254766       2.05209
  34     5.035        2.5690        0.0002       21.6834       21.6836      19.114591       1.00135
  33     6.613        2.5691        0.0002       21.5852       21.5854      19.016269       0.52563
  32     8.786        2.5692        0.0003       21.5136       21.5138      18.944608       0.27831
  31     11.80        2.5693        0.0003       21.4573       21.4576      18.888305       0.15763
  30     15.07        2.5693        0.0004       21.4204       21.4208      18.851488       0.09505
  29     18.79        2.5693        0.0005       21.3930       21.3935      18.824129       0.06203
  28     23.16        2.5693        0.0006       21.3699       21.3704      18.801087       0.04456
  27     28.12        2.5693        0.0007       21.3489       21.3496      18.780224       0.03547
  26     33.73        2.5693        0.0008       21.3295       21.3303      18.760988       0.02892
  25     40.54        2.5693        0.0010       21.2980       21.2989      18.729616       0.03892
  24     48.69        2.5693        0.0011       21.2657       21.2669      18.697524       0.03321
  23     57.69        2.5694        0.0013       21.2356       21.2370      18.667598       0.02805
  22     68.43        2.5694        0.0016       21.2052       21.2067      18.637358       0.02377
  21     81.20        2.5694        0.0019       21.1744       21.1762      18.606855       0.02016
  20     96.49        2.5694        0.0022       21.1431       21.1453      18.575941       0.01706
  19     114.6        2.5694        0.0026       21.1089       21.1115      18.542113       0.01580
  18     136.5        2.5694        0.0031       21.0705       21.0736      18.504180       0.01459
  17     162.9        2.5694        0.0036       21.0287       21.0323      18.462929       0.01319
  16     196.4        2.5694        0.0044       20.9749       20.9792      18.409865       0.01336
  15     218.7        2.5694        0.0048       20.9212       20.9260      18.356658       0.02020
  14     243.0        2.5693        0.0054       20.8625       20.8679      18.298534       0.02016
  13     269.0        2.5694        0.0059       20.7634       20.7693      18.199918       0.03199
  12     297.5        2.5695        0.0065       20.5978       20.6043      18.034830       0.04896
  11     328.5        2.5697        0.0071       20.3336       20.3407      17.771042       0.07172
  10     361.9        2.5700        0.0077       19.9321       19.9398      17.369759       0.10153
   9     398.1        2.5706        0.0082       19.3647       19.3729      16.802277       0.13221
   8     437.6        2.5717        0.0087       18.6306       18.6393      16.067632       0.15707
   7     480.5        2.5732        0.0092       17.7766       17.7857      15.212512       0.16794
   6     533.0        2.5761        0.0096       16.7609       16.7705      14.194431       0.16378
   5     589.8        2.5809        0.0101       15.8251       15.8353      13.254394       0.13953
   4     651.6        2.5887        0.0107       15.0248       15.0355      12.446727       0.11045
   3     718.7        2.6013        0.0113       14.3738       14.3851      11.783795       0.08331
   2     792.3        2.6219        0.0120       13.7862       13.7981      11.176256       0.06968
   1     891.5        2.6668        0.0129       13.0441       13.0569      10.390154       0.06689
   0    1013.0        2.7678        0.0138       12.2523       12.2662       9.498342       0.06192



 Wavenumbers:  6150. -  7700. cm-1, ATM      1
 LEVEL PRESSURE   UPWARD FLUX   DIFDOWN FLUX  DIRDOWN FLUX  DOWNWARD FLUX   NET FLUX    HEATING RATE
          mb          W/m2          W/m2          W/m2        W/m2          W/m2       degree/day
  51    .06700        4.0420        0.0000       47.3109       47.3109      43.268847       0.00000
  50    .07753        4.0420        0.0000       47.3108       47.3108      43.268830       0.01303
  49    .09103        4.0420        0.0000       47.3108       47.3108      43.268810       0.01277
  48    0.1069        4.0420        0.0000       47.3108       47.3108      43.268787       0.01250
  47    0.1255        4.0420        0.0000       47.3108       47.3108      43.268760       0.01223
  46    0.1487        4.0420        0.0000       47.3107       47.3107      43.268726       0.01241
  45    0.1794        4.0420        0.0000       47.3107       47.3107      43.268679       0.01276
  44    0.2165        4.0420        0.0000       47.3106       47.3106      43.268624       0.01252
  43    0.2613        4.0420        0.0000       47.3105       47.3106      43.268559       0.01228
  42    0.3336        4.0420        0.0000       47.3104       47.3104      43.268451       0.01256
  41    0.4307        4.0420        0.0000       47.3102       47.3103      43.268308       0.01242
  40    0.5894        4.0420        0.0001       47.3100       47.3100      43.268075       0.01240
  39     1.339        4.0419        0.0001       47.3087       47.3089      43.266974       0.01240
  38     1.782        4.0418        0.0002       47.3080       47.3082      43.266328       0.01230
  37     2.292        4.0427        0.0004       42.0964       42.0968      38.054069      86.32860
  36     2.964        4.0431        0.0005       41.4820       41.4825      37.439417       7.71574
  35     3.853        4.0433        0.0006       41.1561       41.1567      37.113356       3.09438
  34     5.035        4.0434        0.0007       40.9477       40.9484      36.904976       1.48858
  33     6.613        4.0435        0.0009       40.8037       40.8045      36.761051       0.76942
  32     8.786        4.0435        0.0011       40.7003       40.7013      36.657862       0.40075
  31     11.80        4.0433        0.0014       40.6204       40.6217      36.578423       0.22241
  30     15.07        4.0431        0.0017       40.5690       40.5706      36.527528       0.13140
  29     18.79        4.0429        0.0020       40.5312       40.5333      36.490425       0.08412
  28     23.16        4.0425        0.0025       40.4998       40.5023      36.459724       0.05937
  27     28.12        4.0422        0.0029       40.4716       40.4746      36.432408       0.04644
  26     33.73        4.0417        0.0035       40.4461       40.4496      36.407841       0.03694
  25     40.54        4.0412        0.0041       40.4057       40.4098      36.368573       0.04872
  24     48.69        4.0406        0.0049       40.3654       40.3702      36.329626       0.04030
  23     57.69        4.0399        0.0057       40.3285       40.3342      36.294280       0.03313
  22     68.43        4.0391        0.0068       40.2917       40.2984      36.259362       0.02745
  21     81.20        4.0381        0.0080       40.2548       40.2628      36.224705       0.02290
  20     96.49        4.0369        0.0094       40.2173       40.2267      36.189817       0.01926
  19     114.6        4.0354        0.0111       40.1748       40.1860      36.150532       0.01834
  18     136.5        4.0337        0.0132       40.1254       40.1386      36.104865       0.01756
  17     162.9        4.0317        0.0156       40.0676       40.0832      36.051540       0.01704
  16     196.4        4.0291        0.0188       39.9853       40.0040      35.974986       0.01927
  15     218.7        4.0274        0.0208       39.8938       39.9146      35.887191       0.03333
  14     243.0        4.0256        0.0231       39.7904       39.8135      35.787868       0.03445
  13     269.0        4.0237        0.0254       39.6124       39.6378      35.614111       0.05637
  12     297.5        4.0219        0.0279       39.3140       39.3420      35.320062       0.08721
  11     328.5        4.0202        0.0305       38.8360       38.8665      34.846304       0.12881
  10     361.9        4.0188        0.0330       38.1042       38.1373      34.118508       0.18414
   9     398.1        4.0179        0.0354       37.0553       37.0908      33.072841       0.24362
   8     437.6        4.0181        0.0376       35.6587       35.6962      31.678177       0.29819
   7     480.5        4.0198        0.0394       33.9489       33.9883      29.968435       0.33579
   6     533.0        4.0251        0.0411       31.7539       31.7950      27.769867       0.35368
   5     589.8        4.0360        0.0426       29.5017       29.5443      25.508247       0.33570
   4     651.6        4.0562        0.0438       27.2844       27.3283      23.272070       0.30580
   3     718.7        4.0902        0.0450       25.2254       25.2704      21.180150       0.26290
   2     792.3        4.1470        0.0462       23.3122       23.3583      19.211359       0.22580
   1     891.5        4.2709        0.0476       21.1856       21.2333      16.962374       0.19138
   0    1013.0        4.5393        0.0495       19.1851       19.2346      14.695226       0.15742



 Wavenumbers:  7700. -  8050. cm-1, ATM      1
 LEVEL PRESSURE   UPWARD FLUX   DIFDOWN FLUX  DIRDOWN FLUX  DOWNWARD FLUX   NET FLUX    HEATING RATE
          mb          W/m2          W/m2          W/m2        W/m2          W/m2       degree/day
  51    .06700        5.5937        0.0000       11.1810       11.1810       5.587252       0.00000
  50    .07753        5.5937        0.0000       11.1809       11.1809       5.587230       0.01719
  49    .09103        5.5937        0.0000       11.1809       11.1809       5.587203       0.01684
  48    0.1069        5.5937        0.0000       11.1809       11.1809       5.587172       0.01649
  47    0.1255        5.5937        0.0000       11.1809       11.1809       5.587137       0.01614
  46    0.1487        5.5937        0.0000       11.1808       11.1808       5.587092       0.01637
  45    0.1794        5.5937        0.0000       11.1808       11.1808       5.587030       0.01685
  44    0.2165        5.5938        0.0000       11.1807       11.1807       5.586958       0.01653
  43    0.2613        5.5938        0.0000       11.1806       11.1806       5.586872       0.01622
  42    0.3336        5.5938        0.0000       11.1805       11.1805       5.586729       0.01659
  41    0.4307        5.5938        0.0000       11.1803       11.1804       5.586541       0.01641
  40    0.5894        5.5939        0.0000       11.1801       11.1801       5.586232       0.01640
  39     1.339        5.5941        0.0001       11.1788       11.1789       5.584774       0.01642
  38     1.782        5.5942        0.0001       11.1781       11.1782       5.583917       0.01631
  37     2.292        5.5944        0.0002       11.1771       11.1773       5.582925       0.01643
  36     2.964        5.5946        0.0003       11.1759       11.1762       5.581623       0.01635
  35     3.853        5.5948        0.0003       11.1744       11.1747       5.579903       0.01632
  34     5.035        5.5952        0.0004       11.1724       11.1728       5.577618       0.01632
  33     6.613        5.5957        0.0005       11.1698       11.1703       5.574567       0.01631
  32     8.786        5.5963        0.0006       11.1662       11.1668       5.570456       0.01596
  31     11.80        5.5973        0.0008       11.1611       11.1619       5.564580       0.01645
  30     15.07        5.5983        0.0009       11.1556       11.1566       5.558277       0.01627
  29     18.79        5.5995        0.0012       11.1495       11.1506       5.551164       0.01613
  28     23.16        5.6008        0.0014       11.1423       11.1437       5.542867       0.01604
  27     28.12        5.6024        0.0017       11.1341       11.1358       5.533395       0.01610
  26     33.73        5.6041        0.0020       11.1250       11.1269       5.522816       0.01591
  25     40.54        5.6063        0.0023       11.1140       11.1163       5.510066       0.01582
  24     48.69        5.6088        0.0028       11.1008       11.1036       5.494742       0.01586
  23     57.69        5.6117        0.0032       11.0864       11.0896       5.477971       0.01572
  22     68.43        5.6151        0.0038       11.0693       11.0732       5.458079       0.01564
  21     81.20        5.6192        0.0045       11.0492       11.0537       5.434500       0.01558
  20     96.49        5.6241        0.0053       11.0253       11.0307       5.406573       0.01541
  19     114.6        5.6300        0.0063       10.9972       11.0035       5.373543       0.01542
  18     136.5        5.6371        0.0074       10.9644       10.9718       5.334736       0.01492
  17     162.9        5.6457        0.0088       10.9258       10.9346       5.288981       0.01463
  16     196.4        5.6569        0.0106       10.8767       10.8873       5.230319       0.01477
  15     218.7        5.6645        0.0117       10.8449       10.8566       5.192099       0.01451
  14     243.0        5.6728        0.0130       10.8107       10.8237       5.150863       0.01430
  13     269.0        5.6820        0.0143       10.7741       10.7884       5.106388       0.01443
  12     297.5        5.6922        0.0158       10.7349       10.7507       5.058467       0.01421
  11     328.5        5.7035        0.0174       10.6928       10.7102       5.006699       0.01408
  10     361.9        5.7160        0.0191       10.6477       10.6667       4.950742       0.01416
   9     398.1        5.7301        0.0209       10.5991       10.6200       4.889934       0.01417
   8     437.6        5.7459        0.0229       10.5466       10.5695       4.823570       0.01419
   7     480.5        5.7639        0.0250       10.4896       10.5146       4.750732       0.01431
   6     533.0        5.7877        0.0276       10.4178       10.4453       4.657617       0.01498
   5     589.8        5.8158        0.0303       10.3377       10.3680       4.552255       0.01564
   4     651.6        5.8494        0.0333       10.2472       10.2805       4.431014       0.01658
   3     718.7        5.8900        0.0364       10.1447       10.1812       4.291194       0.01757
   2     792.3        5.9396        0.0398       10.0278       10.0675       4.127957       0.01872
   1     891.5        6.0174        0.0442        9.8589        9.9031       3.885733       0.02061
   0    1013.0        6.1285        0.0494        9.6424        9.6918       3.563331       0.02239



 Wavenumbers:  8050. - 12850. cm-1, ATM      1
 LEVEL PRESSURE   UPWARD FLUX   DIFDOWN FLUX  DIRDOWN FLUX  DOWNWARD FLUX   NET FLUX    HEATING RATE
          mb          W/m2          W/m2          W/m2        W/m2          W/m2       degree/day
  51    .06700       94.4003        0.0000      156.5418      156.5418      62.141473       0.00000
  50    .07753       94.4003        0.0000      156.5417      156.5417      62.141473       0.00000
  49    .09103       94.4002        0.0001      156.5417      156.5417      62.141473      -0.00000
  48    0.1069       94.4002        0.0001      156.5416      156.5417      62.141473       0.00000
  47    0.1255       94.4002        0.0002      156.5415      156.5417      62.141473      -0.00000
  46    0.1487       94.4002        0.0002      156.5414      156.5417      62.141473       0.00000
  45    0.1794       94.4002        0.0003      156.5413      156.5416      62.141473       0.00000
  44    0.2165       94.4001        0.0004      156.5412      156.5416      62.141473      -0.00000
  43    0.2613       94.4001        0.0006      156.5410      156.5415      62.141473       0.00000
  42    0.3336       94.4000        0.0008      156.5407      156.5415      62.141473       0.00000
  41    0.4307       94.3999        0.0010      156.5403      156.5413      62.141473      -0.00000
  40    0.5894       94.3997        0.0015      156.5397      156.5412      62.141473       0.00000
  39     1.339       94.3989        0.0036      156.5367      156.5403      62.141473       0.00000
  38     1.782       94.3984        0.0049      156.5350      156.5399      62.141473       0.00000
  37     2.292       94.3963        0.0103      156.5274      156.5377      62.141473      -0.00000
  36     2.964       94.3950        0.0135      156.5230      156.5365      62.141473       0.00000
  35     3.853       94.3938        0.0167      156.5186      156.5353      62.141473      -0.00000
  34     5.035       94.3924        0.0204      156.5134      156.5338      62.141473       0.00000
  33     6.613       94.3905        0.0251      156.5069      156.5320      62.141473      -0.00000
  32     8.786       94.3882        0.0313      156.4983      156.5296      62.141473       0.00000
  31     11.80       94.3848        0.0400      156.4862      156.5263      62.141473      -0.00000
  30     15.07       94.3812        0.0494      156.4733      156.5226      62.141473      -0.00000
  29     18.79       94.3771        0.0599      156.4587      156.5186      62.141473      -0.00000
  28     23.16       94.3723        0.0722      156.4416      156.5138      62.141473      -0.00000
  27     28.12       94.3669        0.0862      156.4221      156.5084      62.141473       0.00000
  26     33.73       94.3608        0.1020      156.4003      156.5023      62.141473      -0.00000
  25     40.54       94.3534        0.1211      156.3738      156.4949      62.141473      -0.00000
  24     48.69       94.3445        0.1441      156.3419      156.4860      62.141473       0.00000
  23     57.69       94.3347        0.1694      156.3068      156.4762      62.141473      -0.00000
  22     68.43       94.3230        0.1996      156.2649      156.4645      62.141473       0.00000
  21     81.20       94.3090        0.2356      156.2149      156.4505      62.141473      -0.00000
  20     96.49       94.2924        0.2786      156.1553      156.4338      62.141473       0.00000
  19     114.6       94.2797        0.3295      155.8747      156.2042      61.924576       0.10128
  18     136.5       94.2627        0.3900      155.6102      156.0002      61.737536       0.07192
  17     162.9       94.2401        0.4622      155.3505      155.8128      61.572673       0.05270
  16     196.4       94.2080        0.5561      155.0442      155.6003      61.392320       0.04540
  15     218.7       94.1866        0.6178      154.7927      155.4105      61.223859       0.06396
  14     243.0       94.1628        0.6849      154.5415      155.2264      61.063681       0.05556
  13     269.0       94.1381        0.7577      154.2000      154.9577      60.819617       0.07917
  12     297.5       94.1137        0.8361      153.7385      154.5746      60.460943       0.10638
  11     328.5       94.0912        0.9207      153.1148      154.0354      59.944172       0.14051
  10     361.9       94.0735        1.0111      152.2640      153.2751      59.201525       0.18790
   9     398.1       94.0650        1.1074      151.1104      152.2178      58.152738       0.24434
   8     437.6       94.0729        1.2094      149.5878      150.7972      56.724290       0.30541
   7     480.5       94.1079        1.3166      147.6375      148.9541      54.846228       0.36884
   6     533.0       94.2016        1.4452      144.8335      146.2787      52.077114       0.44546
   5     589.8       94.3849        1.5794      141.4346      143.0140      48.629118       0.51180
   4     651.6       94.7152        1.7186      137.4660      139.1846      44.469437       0.56885
   3     718.7       95.2591        1.8623      133.1163      134.9786      39.719503       0.59694
   2     792.3       96.1473        2.0089      128.3357      130.3446      34.197236       0.63334
   1     891.5       98.0199        2.1963      121.9597      124.1560      26.136170       0.68596
   0    1013.0      101.7373        2.4104      114.9825      117.3929      15.655611       0.72772



 Wavenumbers: 12850. - 16000. cm-1, ATM      1
 LEVEL PRESSURE   UPWARD FLUX   DIFDOWN FLUX  DIRDOWN FLUX  DOWNWARD FLUX   NET FLUX    HEATING RATE
          mb          W/m2          W/m2          W/m2        W/m2          W/m2       degree/day
  51    .06700       79.9560        0.0000       98.0872       98.0872      18.131254       0.00000
  50    .07753       79.9560        0.0001       98.0864       98.0864      18.130462       0.63472
  49    .09103       79.9560        0.0002       98.0853       98.0855      18.129468       0.62168
  48    0.1069       79.9560        0.0003       98.0841       98.0843      18.128325       0.60839
  47    0.1255       79.9560        0.0004       98.0826       98.0830      18.127011       0.59540
  46    0.1487       79.9560        0.0005       98.0809       98.0814      18.125354       0.60426
  45    0.1794       79.9561        0.0007       98.0784       98.0792      18.123098       0.61916
  44    0.2165       79.9562        0.0010       98.0756       98.0766      18.120445       0.60363
  43    0.2613       79.9563        0.0013       98.0723       98.0736      18.117323       0.58832
  42    0.3336       79.9565        0.0017       98.0670       98.0687      18.112228       0.59407
  41    0.4307       79.9569        0.0023       98.0602       98.0625      18.105637       0.57307
  40    0.5894       79.9577        0.0034       98.0496       98.0529      18.095247       0.55252
  39     1.339       79.9644        0.0082       98.0043       98.0125      18.048106       0.53072
  38     1.782       79.9705        0.0110       97.9793       97.9903      18.019766       0.53956
  37     2.292       79.9769        0.0234       97.9380       97.9613      17.984442       0.58505
  36     2.964       79.9910        0.0306       97.8932       97.9238      17.932746       0.64894
  35     3.853       80.0148        0.0378       97.8328       97.8705      17.855731       0.73089
  34     5.035       80.0510        0.0461       97.7493       97.7954      17.744466       0.79482
  33     6.613       80.1017        0.0567       97.6368       97.6935      17.591848       0.81590
  32     8.786       80.1678        0.0706       97.4909       97.5614      17.393624       0.76983
  31     11.80       80.2540        0.0901       97.2978       97.3879      17.133880       0.72720
  30     15.07       80.3367        0.1110       97.1081       97.2191      16.882366       0.64936
  29     18.79       80.4212        0.1345       96.9097       97.0441      16.622922       0.58824
  28     23.16       80.5097        0.1618       96.6962       96.8580      16.348307       0.53102
  27     28.12       80.5989        0.1931       96.4730       96.6661      16.067256       0.47777
  26     33.73       80.6816        0.2281       96.2526       96.4807      15.799141       0.40312
  25     40.54       80.7616        0.2704       96.0202       96.2906      15.529042       0.33509
  24     48.69       80.8388        0.3214       95.7740       96.0954      15.256602       0.28193
  23     57.69       80.9049        0.3774       95.5366       95.9141      15.009220       0.23188
  22     68.43       80.9633        0.4442       95.2899       95.7341      14.770871       0.18737
  21     81.20       81.0051        0.5239       95.0437       95.5675      14.562427       0.13774
  20     96.49       81.0292        0.6189       94.7946       95.4135      14.384276       0.09833
  19     114.6       81.0592        0.7330       94.5169       95.2499      14.190703       0.09038
  18     136.5       81.0830        0.8682       94.2047       95.0729      13.989816       0.07725
  17     162.9       81.1006        1.0291       93.8449       94.8740      13.773398       0.06918
  16     196.4       81.1007        1.2380       93.4007       94.6386      13.537952       0.05926
  15     218.7       81.0928        1.3751       93.1138       94.4889      13.396086       0.05386
  14     243.0       81.0804        1.5242       92.8044       94.3286      13.248226       0.05128
  13     269.0       81.0636        1.6857       92.4696       94.1553      13.091688       0.05078
  12     297.5       81.0429        1.8602       92.1066       93.9668      12.923911       0.04976
  11     328.5       81.0207        2.0489       91.7097       93.7586      12.737892       0.05058
  10     361.9       80.9983        2.2519       91.2744       93.5263      12.528024       0.05310
   9     398.1       80.9779        2.4705       90.7937       93.2642      12.286339       0.05631
   8     437.6       80.9632        2.7050       90.2578       92.9628      11.999595       0.06131
   7     480.5       80.9594        2.9562       89.6545       92.6107      11.651261       0.06841
   6     533.0       80.9778        3.2648       88.8615       92.1263      11.148524       0.08087
   5     589.8       81.0350        3.5959       87.9380       91.5339      10.498917       0.09642
   4     651.6       81.1463        3.9492       86.8703       90.8195       9.673148       0.11293
   3     718.7       81.3302        4.3239       85.6580       89.9819       8.651695       0.12837
   2     792.3       81.6296        4.7187       84.2763       88.9950       7.365411       0.14752
   1     891.5       82.2383        5.2400       82.3191       87.5592       5.320880       0.17398
   0    1013.0       83.3054        5.8514       79.9557       85.8071       2.501672       0.19575



 Wavenumbers: 16000. - 22650. cm-1, ATM      1
 LEVEL PRESSURE   UPWARD FLUX   DIFDOWN FLUX  DIRDOWN FLUX  DOWNWARD FLUX   NET FLUX    HEATING RATE
          mb          W/m2          W/m2          W/m2        W/m2          W/m2       degree/day
  51    .06700      140.5998        0.0000      156.3892      156.3892      15.789478       0.00000
  50    .07753      140.5997        0.0004      156.3887      156.3891      15.789330       0.11810
  49    .09103      140.5997        0.0009      156.3879      156.3888      15.789116       0.13395
  48    0.1069      140.5997        0.0015      156.3871      156.3885      15.788829       0.15274
  47    0.1255      140.5997        0.0021      156.3861      156.3882      15.788445       0.17411
  46    0.1487      140.5998        0.0030      156.3847      156.3877      15.787879       0.20631
  45    0.1794      140.5999        0.0041      156.3828      156.3869      15.786994       0.24292
  44    0.2165      140.6001        0.0054      156.3805      156.3859      15.785794       0.27301
  43    0.2613      140.6005        0.0070      156.3776      156.3846      15.784166       0.30693
  42    0.3336      140.6012        0.0096      156.3726      156.3823      15.781070       0.36095
  41    0.4307      140.6024        0.0131      156.3657      156.3789      15.776403       0.40575
  40    0.5894      140.6050        0.0188      156.3537      156.3725      15.767503       0.47328
  39     1.339      140.6275        0.0458      156.2834      156.3292      15.701750       0.74026
  38     1.782      140.6482        0.0616      156.2324      156.2940      15.645736       1.06641
  37     2.292      140.6678        0.1307      156.1018      156.2324      15.564659       1.34285
  36     2.964      140.7158        0.1710      155.9782      156.1491      15.433321       1.64869
  35     3.853      140.7977        0.2110      155.8115      156.0226      15.224923       1.97773
  34     5.035      140.9229        0.2579      155.5790      155.8369      14.914015       2.22100
  33     6.613      141.0988        0.3169      155.2639      155.5808      14.481948       2.30983
  32     8.786      141.3284        0.3941      154.8540      155.2482      13.919738       2.18342
  31     11.80      141.6275        0.5031      154.3106      154.8137      13.186208       2.05365
  30     15.07      141.9140        0.6193      153.7753      154.3946      12.480586       1.82178
  29     18.79      142.2066        0.7501      153.2139      153.9640      11.757397       1.63969
  28     23.16      142.5125        0.9025      152.6075      153.5100      10.997523       1.46935
  27     28.12      142.8201        1.0764      151.9706      153.0470      10.226894       1.31002
  26     33.73      143.1041        1.2709      151.3362      152.6071       9.503052       1.08832
  25     40.54      143.3772        1.5056      150.6592      152.1648       8.787645       0.88754
  24     48.69      143.6385        1.7883      149.9296      151.7179       8.079392       0.73293
  23     57.69      143.8600        2.0984      149.2112      151.3097       7.449693       0.59025
  22     68.43      144.0529        2.4673      148.4441      150.9114       6.858579       0.46469
  21     81.20      144.1856        2.9066      147.6486      150.5552       6.369597       0.32311
  20     96.49      144.2537        3.4295      146.8101      150.2396       5.985874       0.21179
  19     114.6      144.2888        4.0486      145.8738      149.9224       5.633553       0.16451
  18     136.5      144.2991        4.7796      144.8065      149.5861       5.286958       0.13327
  17     162.9      144.2828        5.6460      143.5766      149.2226       4.939802       0.11097
  16     196.4      144.2001        6.7639      142.0636      148.8275       4.627351       0.07865
  15     218.7      144.1234        7.4944      141.1020      148.5964       4.472989       0.05861
  14     243.0      144.0295        8.2851      140.0744      148.3595       4.329913       0.04962
  13     269.0      143.9171        9.1381      138.9791      148.1172       4.200165       0.04209
  12     297.5      143.7853       10.0554      137.8141      147.8695       4.084239       0.03438
  11     328.5      143.6383       11.0414      136.5680      147.6094       3.971080       0.03077
  10     361.9      143.4762       12.0971      135.2395      147.3365       3.860360       0.02801
   9     398.1      143.2985       13.2264      133.8227      147.0491       3.750608       0.02557
   8     437.6      143.1065       14.4313      132.3132      146.7446       3.638036       0.02407
   7     480.5      142.9005       15.7142      130.7071      146.4213       3.520855       0.02301
   6     533.0      142.6491       17.2812      128.7434      146.0246       3.375504       0.02338
   5     589.8      142.3844       18.9556      126.6384      145.5940       3.209630       0.02462
   4     651.6      142.1111       20.7387      124.3848      145.1235       3.012416       0.02697
   3     718.7      141.8327       22.6320      121.9774      144.6094       2.776747       0.02962
   2     792.3      141.5600       24.6333      119.4089      144.0422       2.482125       0.03379
   1     891.5      141.2427       27.2894      115.9574      143.2467       2.004020       0.04068
   0    1013.0      140.9252       30.4114      111.8633      142.2746       1.349440       0.04545



 Wavenumbers: 22650. - 29000. cm-1, ATM      1
 LEVEL PRESSURE   UPWARD FLUX   DIFDOWN FLUX  DIRDOWN FLUX  DOWNWARD FLUX   NET FLUX    HEATING RATE
          mb          W/m2          W/m2          W/m2        W/m2          W/m2       degree/day
  51    .06700       58.6820        0.0000       59.0156       59.0156       0.333645       0.00000
  50    .07753       58.6819        0.0005       59.0151       59.0155       0.333645       0.00000
  49    .09103       58.6818        0.0010       59.0144       59.0154       0.333645      -0.00000
  48    0.1069       58.6816        0.0017       59.0136       59.0153       0.333645       0.00000
  47    0.1255       58.6815        0.0025       59.0127       59.0151       0.333645       0.00000
  46    0.1487       58.6813        0.0035       59.0115       59.0149       0.333645       0.00000
  45    0.1794       58.6810        0.0048       59.0099       59.0147       0.333645      -0.00000
  44    0.2165       58.6807        0.0063       59.0080       59.0144       0.333645       0.00000
  43    0.2613       58.6804        0.0082       59.0058       59.0140       0.333645      -0.00000
  42    0.3336       58.6798        0.0113       59.0022       59.0134       0.333645       0.00000
  41    0.4307       58.6790        0.0154       58.9973       59.0127       0.333645      -0.00000
  40    0.5894       58.6777        0.0220       58.9894       59.0114       0.333645       0.00000
  39     1.339       58.6717        0.0535       58.9518       59.0053       0.333645      -0.00000
  38     1.782       58.6681        0.0720       58.9297       59.0017       0.333645       0.00000
  37     2.292       58.6526        0.1526       58.8336       58.9862       0.333645       0.00000
  36     2.964       58.6435        0.1997       58.7774       58.9772       0.333645      -0.00000
  35     3.853       58.6345        0.2465       58.7216       58.9681       0.333645       0.00000
  34     5.035       58.6239        0.3014       58.6562       58.9576       0.333645       0.00000
  33     6.613       58.6107        0.3704       58.5739       58.9443       0.333645      -0.00000
  32     8.786       58.5932        0.4609       58.4660       58.9269       0.333645       0.00000
  31     11.80       58.5687        0.5885       58.3139       58.9023       0.333645       0.00000
  30     15.07       58.5425        0.7245       58.1516       58.8761       0.333645       0.00000
  29     18.79       58.5130        0.8775       57.9691       58.8467       0.333645       0.00000
  28     23.16       58.4787        1.0556       57.7567       58.8124       0.333645       0.00000
  27     28.12       58.4396        1.2586       57.5146       58.7733       0.333645      -0.00000
  26     33.73       58.3960        1.4849       57.2448       58.7297       0.333645       0.00000
  25     40.54       58.3436        1.7572       56.9201       58.6772       0.333645       0.00000
  24     48.69       58.2807        2.0836       56.5307       58.6144       0.333645       0.00000
  23     57.69       58.2121        2.4400       56.1057       58.5457       0.333645       0.00000
  22     68.43       58.1309        2.8613       55.6032       58.4645       0.333645      -0.00000
  21     81.20       58.0350        3.3589       55.0097       58.3686       0.333645       0.00000
  20     96.49       57.9219        3.9455       54.3101       58.2556       0.333645      -0.00000
  19     114.6       57.7894        4.6330       53.4900       58.1230       0.333645       0.00000
  18     136.5       57.6346        5.4354       52.5329       57.9683       0.333645       0.00000
  17     162.9       57.4537        6.3734       51.4139       57.7873       0.333645       0.00000
  16     196.4       57.2243        7.5619       49.9961       57.5579       0.333645       0.00000
  15     218.7       57.0768        8.3256       49.0848       57.4105       0.333645       0.00000
  14     243.0       56.9193        9.1410       48.1119       57.2530       0.333645      -0.00000
  13     269.0       56.7519       10.0076       47.0779       57.0855       0.333645       0.00000
  12     297.5       56.5746       10.9246       45.9836       56.9082       0.333645       0.00000
  11     328.5       56.3872       11.8935       44.8274       56.7209       0.333645      -0.00000
  10     361.9       56.1902       12.9116       43.6122       56.5238       0.333645       0.00000
   9     398.1       55.9835       13.9791       42.3380       56.3171       0.333645      -0.00000
   8     437.6       55.7674       15.0940       41.0071       56.1011       0.333645      -0.00000
   7     480.5       55.5425       16.2539       39.6223       55.8762       0.333645       0.00000
   6     533.0       55.2747       17.6337       37.9747       55.6083       0.333645       0.00000
   5     589.8       54.9967       19.0642       36.2662       55.3304       0.333645      -0.00000
   4     651.6       54.7100       20.5382       34.5054       55.0436       0.333645       0.00000
   3     718.7       54.4155       22.0498       32.6994       54.7491       0.333645       0.00000
   2     792.3       54.1150       23.5896       30.8590       54.4486       0.333645      -0.00000
   1     891.5       53.7325       25.5452       28.5210       54.0662       0.333645       0.00000
   0    1013.0       53.3071       27.7144       25.9263       53.6407       0.333645      -0.00000



 Wavenumbers: 29000. - 38000. cm-1, ATM      1
 LEVEL PRESSURE   UPWARD FLUX   DIFDOWN FLUX  DIRDOWN FLUX  DOWNWARD FLUX   NET FLUX    HEATING RATE
          mb          W/m2          W/m2          W/m2        W/m2          W/m2       degree/day
  51    .06700        8.7864        0.0000       20.8114       20.8114      12.024950       0.00000
  50    .07753        8.7862        0.0003       20.8070       20.8074      12.021141       3.05281
  49    .09103        8.7860        0.0007       20.8009       20.8016      12.015602       3.46228
  48    0.1069        8.7857        0.0012       20.7928       20.7939      12.008189       3.94593
  47    0.1255        8.7855        0.0017       20.7820       20.7837      11.998280       4.49221
  46    0.1487        8.7851        0.0024       20.7665       20.7688      11.983711       5.31067
  45    0.1794        8.7847        0.0033       20.7424       20.7457      11.961036       6.22468
  44    0.2165        8.7842        0.0044       20.7103       20.7147      11.930500       6.94639
  43    0.2613        8.7836        0.0056       20.6675       20.6731      11.889488       7.73071
  42    0.3336        8.7828        0.0077       20.5880       20.5957      11.812892       8.93028
  41    0.4307        8.7817        0.0104       20.4722       20.4826      11.700887       9.73862
  40    0.5894        8.7803        0.0147       20.2637       20.2784      11.498100      10.78395
  39     1.339        8.7778        0.0332       19.0984       19.1315      10.353768      12.88309
  38     1.782        8.7791        0.0427       18.4394       18.4821       9.702958      12.39039
  37     2.292        8.7632        0.0864       17.7196       17.8060       9.042787      10.93414
  36     2.964        8.7643        0.1078       16.9773       17.0851       8.320807       9.06303
  35     3.853        8.7746        0.1267       16.1993       16.3260       7.551427       7.30156
  34     5.035        8.7944        0.1474       15.4121       15.5596       6.765172       5.61668
  33     6.613        8.8244        0.1726       14.6494       14.8220       5.997656       4.10314
  32     8.786        8.8646        0.2053       13.9296       14.1349       5.270314       2.82473
  31     11.80        8.9173        0.2505       13.2231       13.4736       4.556240       1.99918
  30     15.07        8.9683        0.2981       12.6809       12.9790       4.010730       1.40840
  29     18.79        9.0210        0.3507       12.2107       12.5614       3.540371       1.06645
  28     23.16        9.0770        0.4110       11.7764       12.1874       3.110367       0.83149
  27     28.12        9.1344        0.4787       11.3764       11.8551       2.720691       0.66242
  26     33.73        9.1874        0.5536       11.0198       11.5734       2.386027       0.50318
  25     40.54        9.2377        0.6433       10.6730       11.3163       2.078612       0.38138
  24     48.69        9.2852        0.7499       10.3280       11.0779       1.792732       0.29584
  23     57.69        9.3242        0.8654       10.0103       10.8757       1.551524       0.22610
  22     68.43        9.3558        1.0011        9.6897       10.6908       1.334967       0.17024
  21     81.20        9.3711        1.1615        9.3718       10.5333       1.162274       0.11411
  20     96.49        9.3680        1.3502        9.0486       10.3988       1.030806       0.07256
  19     114.6        9.3548        1.5682        8.7003       10.2685       0.913777       0.05464
  18     136.5        9.3343        1.8176        8.3181       10.1358       0.801477       0.04318
  17     162.9        9.3067        2.1019        7.8963        9.9982       0.691516       0.03515
  16     196.4        9.2600        2.4549        7.3998        9.8547       0.594682       0.02437
  15     218.7        9.2264        2.6765        7.0974        9.7739       0.547471       0.01792
  14     243.0        9.1896        2.9081        6.7854        9.6935       0.503875       0.01512
  13     269.0        9.1494        3.1490        6.4651        9.6141       0.464726       0.01270
  12     297.5        9.1058        3.3980        6.1380        9.5360       0.430214       0.01024
  11     328.5        9.0603        3.6542        5.8033        9.4575       0.397170       0.00898
  10     361.9        9.0133        3.9151        5.4640        9.3791       0.365742       0.00795
   9     398.1        8.9650        4.1801        5.1209        9.3010       0.335956       0.00694
   8     437.6        8.9160        4.4478        4.7754        9.2232       0.307241       0.00614
   7     480.5        8.8664        4.7160        4.4304        9.1464       0.279983       0.00535
   6     533.0        8.8096        5.0217        4.0381        9.0599       0.250267       0.00478
   5     589.8        8.7536        5.3233        3.6518        8.9751       0.221494       0.00427
   4     651.6        8.6993        5.6177        3.2750        8.8926       0.193338       0.00385
   3     718.7        8.6474        5.9018        2.9114        8.8132       0.165761       0.00347
   2     792.3        8.5986        6.1730        2.5643        8.7373       0.138763       0.00310
   1     891.5        8.5427        6.4918        2.1564        8.6481       0.105425       0.00284
   0    1013.0        8.4896        6.8112        1.7470        8.5582       0.068587       0.00256



 Wavenumbers: 38000. - 50000. cm-1, ATM      1
 LEVEL PRESSURE   UPWARD FLUX   DIFDOWN FLUX  DIRDOWN FLUX  DOWNWARD FLUX   NET FLUX    HEATING RATE
          mb          W/m2          W/m2          W/m2        W/m2          W/m2       degree/day
  51    .06700        0.0073        0.0000        1.2836        1.2836       1.276305       0.00000
  50    .07753        0.0073        0.0001        1.2812        1.2812       1.273969       1.87235
  49    .09103        0.0072        0.0002        1.2777        1.2778       1.270636       2.08335
  48    0.1069        0.0071        0.0002        1.2731        1.2734       1.266256       2.33153
  47    0.1255        0.0070        0.0004        1.2672        1.2675       1.260499       2.61007
  46    0.1487        0.0069        0.0005        1.2586        1.2591       1.252169       3.03609
  45    0.1794        0.0068        0.0007        1.2455        1.2462       1.239397       3.50642
  44    0.2165        0.0066        0.0009        1.2282        1.2291       1.222465       3.85168
  43    0.2613        0.0064        0.0011        1.2054        1.2065       1.200109       4.21402
  42    0.3336        0.0061        0.0015        1.1639        1.1654       1.159271       4.76132
  41    0.4307        0.0058        0.0020        1.1051        1.1071       1.101291       5.04121
  40    0.5894        0.0052        0.0026        1.0039        1.0064       1.001211       5.32213
  39     1.339        0.0039        0.0035        0.5438        0.5473       0.543469       5.15335
  38     1.782        0.0037        0.0032        0.3635        0.3667       0.362985       3.43613
  37     2.292        0.0016        0.0043        0.2324        0.2367       0.235067       2.11864
  36     2.964        0.0010        0.0035        0.1429        0.1464       0.145414       1.12542
  35     3.853        0.0006        0.0026        0.0841        0.0867       0.086071       0.56318
  34     5.035        0.0004        0.0019        0.0478        0.0496       0.049220       0.26325
  33     6.613        0.0003        0.0013        0.0267        0.0280       0.027706       0.11501
  32     8.786        0.0002        0.0009        0.0141        0.0149       0.014790       0.05016
  31     11.80        0.0001        0.0005        0.0064        0.0069       0.006846       0.02224
  30     15.07        0.0000        0.0003        0.0030        0.0033       0.003305       0.00914
  29     18.79        0.0000        0.0002        0.0014        0.0016       0.001573       0.00393
  28     23.16        0.0000        0.0001        0.0006        0.0007       0.000716       0.00166
  27     28.12        0.0000        0.0001        0.0003        0.0003       0.000316       0.00068
  26     33.73        0.0000        0.0000        0.0001        0.0001       0.000139       0.00027
  25     40.54        0.0000        0.0000        0.0000        0.0001       0.000057       0.00010
  24     48.69        0.0000        0.0000        0.0000        0.0000       0.000021       0.00004
  23     57.69        0.0000        0.0000        0.0000        0.0000       0.000008       0.00001
  22     68.43        0.0000        0.0000        0.0000        0.0000       0.000003       0.00000
  21     81.20        0.0000        0.0000        0.0000        0.0000       0.000001       0.00000
  20     96.49        0.0000        0.0000        0.0000        0.0000       0.000000       0.00000
  19     114.6        0.0000        0.0000        0.0000        0.0000       0.000000       0.00000
  18     136.5        0.0000        0.0000        0.0000        0.0000       0.000000       0.00000
  17     162.9        0.0000        0.0000        0.0000        0.0000       0.000000       0.00000
  16     196.4        0.0000        0.0000        0.0000        0.0000       0.000000       0.00000
  15     218.7        0.0000        0.0000        0.0000        0.0000       0.000000       0.00000
  14     243.0        0.0000        0.0000        0.0000        0.0000       0.000000       0.00000
  13     269.0        0.0000        0.0000        0.0000        0.0000       0.000000       0.00000
  12     297.5        0.0000        0.0000        0.0000        0.0000       0.000000       0.00000
  11     328.5        0.0000        0.0000        0.0000        0.0000       0.000000       0.00000
  10     361.9        0.0000        0.0000        0.0000        0.0000       0.000000       0.00000
   9     398.1        0.0000        0.0000        0.0000        0.0000       0.000000       0.00000
   8     437.6        0.0000        0.0000        0.0000        0.0000       0.000000       0.00000
   7     480.5        0.0000        0.0000        0.0000        0.0000       0.000000       0.00000
   6     533.0        0.0000        0.0000        0.0000        0.0000       0.000000       0.00000
   5     589.8        0.0000        0.0000        0.0000        0.0000       0.000000       0.00000
   4     651.6        0.0000        0.0000        0.0000        0.0000       0.000000       0.00000
   3     718.7        0.0000        0.0000        0.0000        0.0000       0.000000       0.00000
   2     792.3        0.0000        0.0000        0.0000        0.0000       0.000000       0.00000
   1     891.5        0.0000        0.0000        0.0000        0.0000       0.000000       0.00000
   0    1013.0        0.0000        0.0000        0.0000        0.0000       0.000000       0.00000



 Wavenumbers:   820. -  2600. cm-1, ATM      1
 LEVEL PRESSURE   UPWARD FLUX   DIFDOWN FLUX  DIRDOWN FLUX  DOWNWARD FLUX   NET FLUX    HEATING RATE
          mb          W/m2          W/m2          W/m2        W/m2          W/m2       degree/day
  51    .06700        0.0056        0.0000        6.0047        6.0047       5.999084       0.00000
  50    .07753        0.0056        0.0000        6.0009        6.0009       5.995305       3.02937
  49    .09103        0.0056        0.0000        6.0001        6.0001       5.994515       0.49378
  48    0.1069        0.0056        0.0000        5.9992        5.9992       5.993640       0.46572
  47    0.1255        0.0056        0.0000        5.9982        5.9982       5.992659       0.44470
  46    0.1487        0.0056        0.0000        5.9970        5.9970       5.991481       0.42941
  45    0.1794        0.0056        0.0000        5.9956        5.9956       5.990014       0.40259
  44    0.2165        0.0056        0.0000        5.9940        5.9940       5.988482       0.34860
  43    0.2613        0.0056        0.0000        5.9925        5.9925       5.986903       0.29770
  42    0.3336        0.0056        0.0000        5.9902        5.9902       5.984673       0.25991
  41    0.4307        0.0056        0.0000        5.9877        5.9877       5.982085       0.22503
  40    0.5894        0.0056        0.0000        5.9836        5.9836       5.978053       0.21442
  39     1.339        0.0056        0.0000        5.9651        5.9651       5.959543       0.20839
  38     1.782        0.0056        0.0000        5.9549        5.9549       5.949326       0.19451
  37     2.292        0.0067        0.0000        1.2250        1.2250       1.218366      78.35705
  36     2.964        0.0071        0.0000        1.1288        1.1288       1.121664       1.21391
  35     3.853        0.0073        0.0000        1.0866        1.0866       1.079334       0.40172
  34     5.035        0.0074        0.0000        1.0639        1.0639       1.056445       0.16350
  33     6.613        0.0075        0.0000        1.0507        1.0507       1.043137       0.07115
  32     8.786        0.0076        0.0000        1.0428        1.0428       1.035275       0.03053
  31     11.80        0.0076        0.0000        1.0380        1.0380       1.030353       0.01378
  30     15.07        0.0076        0.0000        1.0354        1.0354       1.027769       0.00667
  29     18.79        0.0076        0.0000        1.0338        1.0338       1.026199       0.00356
  28     23.16        0.0076        0.0000        1.0327        1.0327       1.025104       0.00212
  27     28.12        0.0076        0.0000        1.0319        1.0319       1.024279       0.00140
  26     33.73        0.0076        0.0000        1.0313        1.0313       1.023644       0.00096
  25     40.54        0.0076        0.0000        1.0304        1.0304       1.022771       0.00108
  24     48.69        0.0077        0.0000        1.0297        1.0297       1.022026       0.00077
  23     57.69        0.0077        0.0000        1.0291        1.0291       1.021441       0.00055
  22     68.43        0.0077        0.0000        1.0286        1.0286       1.020940       0.00039
  21     81.20        0.0077        0.0000        1.0282        1.0282       1.020509       0.00028
  20     96.49        0.0077        0.0000        1.0278        1.0278       1.020133       0.00021
  19     114.6        0.0077        0.0000        1.0275        1.0275       1.019836       0.00014
  18     136.5        0.0077        0.0000        1.0272        1.0272       1.019524       0.00012
  17     162.9        0.0077        0.0000        1.0269        1.0269       1.019233       0.00009
  16     196.4        0.0077        0.0000        1.0266        1.0266       1.018945       0.00007
  15     218.7        0.0077        0.0000        1.0264        1.0264       1.018759       0.00007
  14     243.0        0.0077        0.0000        1.0263        1.0263       1.018610       0.00005
  13     269.0        0.0077        0.0000        1.0261        1.0261       1.018412       0.00006
  12     297.5        0.0077        0.0000        1.0258        1.0258       1.018108       0.00009
  11     328.5        0.0077        0.0000        1.0253        1.0253       1.017631       0.00013
  10     361.9        0.0077        0.0000        1.0245        1.0245       1.016858       0.00020
   9     398.1        0.0077        0.0000        1.0233        1.0233       1.015645       0.00028
   8     437.6        0.0077        0.0000        1.0215        1.0215       1.013826       0.00039
   7     480.5        0.0077        0.0000        1.0188        1.0189       1.011138       0.00053
   6     533.0        0.0077        0.0000        1.0140        1.0140       1.006250       0.00079
   5     589.8        0.0078        0.0000        1.0064        1.0064       0.998615       0.00113
   4     651.6        0.0079        0.0000        0.9935        0.9935       0.985650       0.00177
   3     718.7        0.0080        0.0000        0.9741        0.9741       0.966100       0.00246
   2     792.3        0.0082        0.0000        0.9461        0.9461       0.937857       0.00324
   1     891.5        0.0087        0.0000        0.8956        0.8956       0.886934       0.00433
   0    1013.0        0.0094        0.0000        0.8216        0.8217       0.812287       0.00518

  Modules and versions used in this calculation:

       rrtmg_sw.1col.f90:  $Revision$                    rrtmg_sw_init.f90:  $Revision$        
     rrtmgsw_cldprop.f90:  $Revision$                  rrtmgsw_cldprmc.f90:  NOT USED          
     rrtmg_sw_reftra.f90:  $Revision$                  rrtmg_sw_spcvrt.f90:  NOT USED          
     rrtmg_sw_spcvmc.f90:  NOT USED                    rrtmgsw_setcoef.f90:  NOT USED          
     rrtmg_sw_taumol.f90:  $Revision$                  rrtmg_sw_vrtqdr.f90:  NOT USED          
                rrtatm.f:  NOT USED                             util_xxx.f:  NOT USED          
                 extra.f:  NOT USED                       rrtmg_sw_k_g.f90:  $Revision$        

