

 Wavenumbers:   820. - 50000. cm-1, ATM      1
 LEVEL PRESSURE   UPWARD FLUX   DIFDOWN FLUX  DIRDOWN FLUX  DOWNWARD FLUX   NET FLUX    HEATING RATE
          mb          W/m2          W/m2          W/m2        W/m2          W/m2       degree/day
  51    .06700      409.2903        0.0000      617.8126      617.8126     208.522303       0.00000
  50    .07753      409.2899        0.0014      617.7948      617.7962     208.506287      12.83653
  49    .09103      409.2895        0.0031      617.7782      617.7812     208.491743       9.09067
  48    0.1069      409.2890        0.0050      617.7588      617.7638     208.474834       9.00078
  47    0.1255      409.2885        0.0072      617.7352      617.7424     208.453907       9.48739
  46    0.1487      409.2879        0.0101      617.7026      617.7127     208.424754      10.62650
  45    0.1794      409.2872        0.0139      617.6546      617.6685     208.381244      11.94452
  44    0.2165      409.2865        0.0185      617.5928      617.6113     208.324780      12.84461
  43    0.2613      409.2859        0.0239      617.5133      617.5372     208.251307      13.84939
  42    0.3336      409.2851        0.0327      617.3704      617.4031     208.118001      15.54211
  41    0.4307      409.2845        0.0444      617.1679      617.2123     207.927800      16.53756
  40    0.5894      409.2845        0.0632      616.8135      616.8767     207.592130      17.85049
  39     1.339      409.3035        0.1483      614.9755      615.1238     205.820263      19.94800
  38     1.782      409.3278        0.1962      614.0077      614.2039     204.876067      17.97597
  37     2.292      409.3462        0.3300      599.0017      599.3316     189.985428     246.62783
  36     2.964      409.4092        0.4249      596.7743      597.1992     187.790030      27.55888
  35     3.853      409.5219        0.5291      595.0246      595.5537     186.031796      16.68597
  34     5.035      409.6981        0.6575      593.4076      594.0651     184.366938      11.89305
  33     6.613      409.9475        0.8230      591.8192      592.6422     182.694728       8.93964
  32     8.786      410.2729        1.0424      590.2000      591.2424     180.969572       6.69988
  31     11.80      410.6946        1.3531      588.4077      589.7608     179.066155       5.32897
  30     15.07      411.0963        1.6846      586.8374      588.5219     177.425685       4.23537
  29     18.79      411.5042        2.0569      585.3063      587.3632     175.859064       3.55201
  28     23.16      411.9278        2.4897      583.7254      586.2151     174.287352       3.03918
  27     28.12      412.3503        2.9824      582.1063      585.0887     172.738405       2.63311
  26     33.73      412.7328        3.5317      580.5035      584.0352     171.302464       2.15898
  25     40.54      413.0894        4.1932      578.7526      582.9458     169.856385       1.79403
  24     48.69      413.4173        4.9871      576.8509      581.8380     168.420661       1.48575
  23     57.69      413.6784        5.8549      574.9541      580.8091     167.130671       1.20917
  22     68.43      413.8818        6.8831      572.8932      579.7763     165.894480       0.97181
  21     81.20      413.9748        8.1023      570.6875      578.7897     164.814917       0.71336
  20     96.49      413.9471        9.5458      568.2924      577.8383     163.891134       0.50986
  19     114.6      413.8624       11.2442      565.4528      576.6969     162.834585       0.49333
  18     136.5      413.7150       13.2329      562.2413      575.4743     161.759237       0.41350
  17     162.9      413.4988       15.5670      558.5767      574.1438     160.644967       0.35617
  16     196.4      413.1265       18.5447      554.0399      572.5846     159.458128       0.29874
  15     218.7      412.8520       20.4697      551.0403      571.5100     158.658002       0.30378
  14     243.0      412.5417       22.5347      547.8491      570.3838     157.842164       0.28296
  13     269.0      412.1956       24.7415      544.2814      569.0228     156.827203       0.32925
  12     297.5      411.8148       27.0906      540.2410      567.3317     155.516918       0.38862
  11     328.5      411.4085       29.5886      535.5981      565.1867     153.778236       0.47274
  10     361.9      410.9817       32.2315      530.2195      562.4510     151.469384       0.58416
   9     398.1      410.5402       35.0241      523.9484      558.9725     148.432345       0.70756
   8     437.6      410.0962       37.9651      516.6523      554.6174     144.521182       0.83623
   7     480.5      409.6652       41.0526      508.2803      549.3329     139.667777       0.95319
   6     533.0      409.2178       44.7646      497.4813      542.2459     133.028147       1.06811
   5     589.8      408.8679       48.6599      485.6268      534.2867     125.418770       1.12948
   4     651.6      408.6965       52.7314      472.8674      525.5988     116.902280       1.16465
   3     718.7      408.7929       56.9706      459.6108      516.5814     107.788459       1.14535
   2     792.3      409.3299       61.3607      445.9055      507.2662      97.936298       1.12993
   1     891.5      410.9439       67.0564      428.3909      495.4473      84.503437       1.14307
   0    1013.0      414.6481       73.5724      408.9048      482.4772      67.829102       1.15778



 Wavenumbers:  2600. -  3250. cm-1, ATM      1
 LEVEL PRESSURE   UPWARD FLUX   DIFDOWN FLUX  DIRDOWN FLUX  DOWNWARD FLUX   NET FLUX    HEATING RATE
          mb          W/m2          W/m2          W/m2        W/m2          W/m2       degree/day
  51    .06700        0.0331        0.0000        5.4450        5.4450       5.411893       0.00000
  50    .07753        0.0331        0.0000        5.4450        5.4450       5.411885       0.00640
  49    .09103        0.0331        0.0000        5.4450        5.4450       5.411875       0.00627
  48    0.1069        0.0331        0.0000        5.4450        5.4450       5.411864       0.00613
  47    0.1255        0.0331        0.0000        5.4450        5.4450       5.411850       0.00599
  46    0.1487        0.0331        0.0000        5.4450        5.4450       5.411834       0.00608
  45    0.1794        0.0331        0.0000        5.4450        5.4450       5.411811       0.00625
  44    0.2165        0.0331        0.0000        5.4449        5.4449       5.411784       0.00612
  43    0.2613        0.0331        0.0000        5.4449        5.4449       5.411752       0.00600
  42    0.3336        0.0331        0.0000        5.4448        5.4448       5.411699       0.00617
  41    0.4307        0.0331        0.0000        5.4448        5.4448       5.411628       0.00620
  40    0.5894        0.0331        0.0000        5.4446        5.4446       5.411508       0.00637
  39     1.339        0.0331        0.0000        5.4439        5.4439       5.410801       0.00797
  38     1.782        0.0331        0.0000        5.4434        5.4434       5.410258       0.01034
  37     2.292        0.0331        0.0000        5.4427        5.4427       5.409542       0.01186
  36     2.964        0.0331        0.0000        5.4416        5.4416       5.408503       0.01304
  35     3.853        0.0331        0.0000        5.4402        5.4402       5.407026       0.01402
  34     5.035        0.0331        0.0000        5.4381        5.4381       5.404971       0.01468
  33     6.613        0.0331        0.0000        5.4353        5.4353       5.402190       0.01487
  32     8.786        0.0331        0.0000        5.4317        5.4317       5.398558       0.01411
  31     11.80        0.0331        0.0000        5.4269        5.4269       5.393778       0.01338
  30     15.07        0.0331        0.0000        5.4224        5.4224       5.389251       0.01169
  29     18.79        0.0331        0.0000        5.4180        5.4180       5.384840       0.01000
  28     23.16        0.0331        0.0000        5.4135        5.4135       5.380355       0.00867
  27     28.12        0.0331        0.0000        5.4088        5.4088       5.375708       0.00790
  26     33.73        0.0331        0.0000        5.4036        5.4036       5.370469       0.00788
  25     40.54        0.0331        0.0000        5.3966        5.3967       5.363530       0.00861
  24     48.69        0.0331        0.0000        5.3872        5.3872       5.354057       0.00980
  23     57.69        0.0331        0.0000        5.3754        5.3754       5.342277       0.01104
  22     68.43        0.0331        0.0000        5.3599        5.3599       5.326796       0.01217
  21     81.20        0.0331        0.0000        5.3401        5.3401       5.306971       0.01310
  20     96.49        0.0331        0.0000        5.3155        5.3155       5.282418       0.01355
  19     114.6        0.0331        0.0000        5.2727        5.2727       5.239603       0.01999
  18     136.5        0.0331        0.0000        5.2276        5.2276       5.194519       0.01734
  17     162.9        0.0331        0.0001        5.1815        5.1816       5.148474       0.01472
  16     196.4        0.0331        0.0001        5.1303        5.1303       5.097234       0.01290
  15     218.7        0.0331        0.0001        5.0969        5.0969       5.063822       0.01269
  14     243.0        0.0331        0.0001        5.0645        5.0646       5.031451       0.01123
  13     269.0        0.0331        0.0001        5.0282        5.0283       4.995142       0.01178
  12     297.5        0.0332        0.0001        4.9862        4.9863       4.953176       0.01245
  11     328.5        0.0332        0.0001        4.9363        4.9364       4.903187       0.01359
  10     361.9        0.0332        0.0001        4.8743        4.8744       4.841166       0.01569
   9     398.1        0.0333        0.0001        4.7943        4.7944       4.761122       0.01865
   8     437.6        0.0334        0.0001        4.6896        4.6897       4.656357       0.02240
   7     480.5        0.0335        0.0002        4.5547        4.5548       4.521327       0.02652
   6     533.0        0.0337        0.0002        4.3602        4.3604       4.326686       0.03131
   5     589.8        0.0340        0.0002        4.1330        4.1331       4.099096       0.03378
   4     651.6        0.0345        0.0002        3.8818        3.8819       3.847408       0.03442
   3     718.7        0.0352        0.0002        3.6238        3.6240       3.588775       0.03250
   2     792.3        0.0363        0.0002        3.3645        3.3647       3.328399       0.02986
   1     891.5        0.0382        0.0002        3.0335        3.0337       2.995487       0.02833
   0    1013.0        0.0420        0.0002        2.6720        2.6722       2.630269       0.02536



 Wavenumbers:  3250. -  4000. cm-1, ATM      1
 LEVEL PRESSURE   UPWARD FLUX   DIFDOWN FLUX  DIRDOWN FLUX  DOWNWARD FLUX   NET FLUX    HEATING RATE
          mb          W/m2          W/m2          W/m2        W/m2          W/m2       degree/day
  51    .06700        0.0010        0.0000        9.1795        9.1795       9.178572       0.00000
  50    .07753        0.0010        0.0000        9.1747        9.1747       9.173702       3.90285
  49    .09103        0.0010        0.0000        9.1713        9.1713       9.170383       2.07466
  48    0.1069        0.0010        0.0000        9.1689        9.1689       9.167976       1.28111
  47    0.1255        0.0010        0.0000        9.1668        9.1668       9.165856       0.96121
  46    0.1487        0.0010        0.0000        9.1645        9.1645       9.163584       0.82828
  45    0.1794        0.0010        0.0000        9.1619        9.1619       9.160914       0.73288
  44    0.2165        0.0010        0.0000        9.1592        9.1592       9.158225       0.61167
  43    0.2613        0.0010        0.0000        9.1565        9.1565       9.155528       0.50840
  42    0.3336        0.0010        0.0000        9.1528        9.1528       9.151831       0.43101
  41    0.4307        0.0010        0.0000        9.1487        9.1487       9.147733       0.35634
  40    0.5894        0.0010        0.0000        9.1428        9.1428       9.141841       0.31334
  39     1.339        0.0010        0.0000        9.1196        9.1196       9.118659       0.26099
  38     1.782        0.0010        0.0000        9.1090        9.1090       9.108075       0.20149
  37     2.292        0.0010        0.0000        6.2382        6.2382       6.237234      47.54862
  36     2.964        0.0010        0.0000        5.8665        5.8665       5.865553       4.66572
  35     3.853        0.0010        0.0000        5.6756        5.6756       5.674610       1.81209
  34     5.035        0.0010        0.0000        5.5538        5.5538       5.552807       0.87010
  33     6.613        0.0010        0.0000        5.4684        5.4684       5.467456       0.45629
  32     8.786        0.0010        0.0000        5.4056        5.4056       5.404637       0.24397
  31     11.80        0.0010        0.0000        5.3551        5.3551       5.354168       0.14130
  30     15.07        0.0010        0.0000        5.3208        5.3209       5.319888       0.08850
  29     18.79        0.0010        0.0000        5.2938        5.2938       5.292851       0.06130
  28     23.16        0.0010        0.0000        5.2692        5.2692       5.268263       0.04755
  27     28.12        0.0010        0.0000        5.2450        5.2450       5.244066       0.04113
  26     33.73        0.0010        0.0000        5.2210        5.2210       5.220044       0.03612
  25     40.54        0.0010        0.0000        5.1845        5.1845       5.183549       0.04528
  24     48.69        0.0009        0.0000        5.1467        5.1468       5.145814       0.03905
  23     57.69        0.0009        0.0000        5.1110        5.1111       5.110154       0.03343
  22     68.43        0.0009        0.0001        5.0739        5.0739       5.073004       0.02920
  21     81.20        0.0009        0.0001        5.0355        5.0356       5.034684       0.02532
  20     96.49        0.0009        0.0001        4.9959        4.9960       4.995105       0.02184
  19     114.6        0.0009        0.0001        4.9514        4.9515       4.950558       0.02080
  18     136.5        0.0009        0.0001        4.9006        4.9007       4.899800       0.01952
  17     162.9        0.0009        0.0001        4.8427        4.8429       4.842004       0.01847
  16     196.4        0.0008        0.0002        4.7652        4.7654       4.764544       0.01950
  15     218.7        0.0008        0.0002        4.6888        4.6890       4.688137       0.02901
  14     243.0        0.0008        0.0002        4.6064        4.6066       4.605752       0.02857
  13     269.0        0.0008        0.0002        4.4802        4.4804       4.479579       0.04093
  12     297.5        0.0008        0.0002        4.2969        4.2971       4.296362       0.05434
  11     328.5        0.0008        0.0002        4.0489        4.0491       4.048366       0.06743
  10     361.9        0.0007        0.0002        3.7394        3.7396       3.738862       0.07831
   9     398.1        0.0007        0.0002        3.3823        3.3825       3.381793       0.08319
   8     437.6        0.0007        0.0002        2.9977        2.9979       2.997173       0.08223
   7     480.5        0.0007        0.0002        2.6032        2.6034       2.602714       0.07747
   6     533.0        0.0007        0.0002        2.1626        2.1628       2.162072       0.07089
   5     589.8        0.0008        0.0002        1.7434        1.7436       1.742860       0.06222
   4     651.6        0.0008        0.0001        1.3457        1.3459       1.345070       0.05440
   3     718.7        0.0009        0.0001        0.9833        0.9834       0.982466       0.04557
   2     792.3        0.0012        0.0001        0.6717        0.6718       0.670564       0.03577
   1     891.5        0.0019        0.0001        0.3761        0.3762       0.374307       0.02521
   0    1013.0        0.0041        0.0000        0.1575        0.1575       0.153423       0.01534



 Wavenumbers:  4000. -  4650. cm-1, ATM      1
 LEVEL PRESSURE   UPWARD FLUX   DIFDOWN FLUX  DIRDOWN FLUX  DOWNWARD FLUX   NET FLUX    HEATING RATE
          mb          W/m2          W/m2          W/m2        W/m2          W/m2       degree/day
  51    .06700        1.3411        0.0000       10.7795       10.7795       9.438404       0.00000
  50    .07753        1.3411        0.0000       10.7795       10.7795       9.438403       0.00080
  49    .09103        1.3411        0.0000       10.7795       10.7795       9.438402       0.00079
  48    0.1069        1.3411        0.0000       10.7795       10.7795       9.438401       0.00077
  47    0.1255        1.3411        0.0000       10.7795       10.7795       9.438399       0.00075
  46    0.1487        1.3411        0.0000       10.7795       10.7795       9.438397       0.00076
  45    0.1794        1.3411        0.0000       10.7795       10.7795       9.438394       0.00078
  44    0.2165        1.3411        0.0000       10.7795       10.7795       9.438391       0.00077
  43    0.2613        1.3411        0.0000       10.7795       10.7795       9.438387       0.00075
  42    0.3336        1.3411        0.0000       10.7795       10.7795       9.438380       0.00077
  41    0.4307        1.3411        0.0000       10.7795       10.7795       9.438371       0.00078
  40    0.5894        1.3411        0.0000       10.7795       10.7795       9.438356       0.00080
  39     1.339        1.3411        0.0000       10.7794       10.7794       9.438266       0.00101
  38     1.782        1.3411        0.0000       10.7793       10.7793       9.438196       0.00134
  37     2.292        1.3411        0.0000       10.7792       10.7792       9.438101       0.00157
  36     2.964        1.3411        0.0000       10.7791       10.7791       9.437960       0.00177
  35     3.853        1.3411        0.0000       10.7789       10.7789       9.437751       0.00198
  34     5.035        1.3411        0.0000       10.7785       10.7786       9.437443       0.00220
  33     6.613        1.3411        0.0000       10.7781       10.7781       9.436989       0.00243
  32     8.786        1.3411        0.0000       10.7774       10.7774       9.436319       0.00260
  31     11.80        1.3411        0.0000       10.7763       10.7764       9.435266       0.00295
  30     15.07        1.3411        0.0001       10.7751       10.7751       9.434032       0.00319
  29     18.79        1.3411        0.0001       10.7735       10.7736       9.432540       0.00338
  28     23.16        1.3411        0.0001       10.7717       10.7718       9.430688       0.00358
  27     28.12        1.3411        0.0001       10.7694       10.7695       9.428446       0.00381
  26     33.73        1.3410        0.0001       10.7666       10.7667       9.425683       0.00415
  25     40.54        1.3410        0.0002       10.7628       10.7630       9.421937       0.00465
  24     48.69        1.3410        0.0002       10.7578       10.7580       9.416948       0.00516
  23     57.69        1.3410        0.0002       10.7518       10.7521       9.411037       0.00554
  22     68.43        1.3410        0.0003       10.7444       10.7446       9.403633       0.00582
  21     81.20        1.3410        0.0003       10.7352       10.7355       9.394526       0.00602
  20     96.49        1.3410        0.0004       10.7241       10.7245       9.383455       0.00611
  19     114.6        1.3411        0.0004       10.7034       10.7039       9.362746       0.00967
  18     136.5        1.3413        0.0005       10.6809       10.6814       9.340136       0.00869
  17     162.9        1.3415        0.0006       10.6556       10.6562       9.314741       0.00812
  16     196.4        1.3418        0.0007       10.6233       10.6240       9.282232       0.00818
  15     218.7        1.3420        0.0008       10.5995       10.6003       9.258256       0.00910
  14     243.0        1.3424        0.0009       10.5739       10.5748       9.232416       0.00896
  13     269.0        1.3428        0.0010       10.5426       10.5436       9.200748       0.01027
  12     297.5        1.3435        0.0011       10.5040       10.5051       9.161639       0.01160
  11     328.5        1.3444        0.0012       10.4555       10.4567       9.112324       0.01341
  10     361.9        1.3456        0.0013       10.3930       10.3943       9.048682       0.01610
   9     398.1        1.3473        0.0015       10.3105       10.3120       8.964649       0.01958
   8     437.6        1.3495        0.0016       10.2030       10.2045       8.855098       0.02342
   7     480.5        1.3522        0.0017       10.0678       10.0695       8.717380       0.02705
   6     533.0        1.3563        0.0019        9.8838        9.8857       8.529403       0.03024
   5     589.8        1.3620        0.0020        9.6785        9.6806       8.318609       0.03129
   4     651.6        1.3700        0.0022        9.4489        9.4511       8.081103       0.03248
   3     718.7        1.3813        0.0024        9.1832        9.1856       7.804315       0.03478
   2     792.3        1.3976        0.0025        8.8653        8.8678       7.470184       0.03832
   1     891.5        1.4290        0.0027        8.4174        8.4202       6.991184       0.04076
   0    1013.0        1.4888        0.0029        7.9208        7.9238       6.435000       0.03862



 Wavenumbers:  4650. -  5150. cm-1, ATM      1
 LEVEL PRESSURE   UPWARD FLUX   DIFDOWN FLUX  DIRDOWN FLUX  DOWNWARD FLUX   NET FLUX    HEATING RATE
          mb          W/m2          W/m2          W/m2        W/m2          W/m2       degree/day
  51    .06700        0.3385        0.0000       10.2033       10.2033       9.864847       0.00000
  50    .07753        0.3385        0.0000       10.2031       10.2031       9.864613       0.18807
  49    .09103        0.3385        0.0000       10.2028       10.2028       9.864319       0.18337
  48    0.1069        0.3385        0.0000       10.2025       10.2025       9.863984       0.17842
  47    0.1255        0.3385        0.0000       10.2021       10.2021       9.863602       0.17340
  46    0.1487        0.3385        0.0000       10.2016       10.2016       9.863123       0.17450
  45    0.1794        0.3385        0.0000       10.2010       10.2010       9.862476       0.17763
  44    0.2165        0.3385        0.0000       10.2002       10.2002       9.861720       0.17193
  43    0.2613        0.3385        0.0000       10.1993       10.1993       9.860839       0.16609
  42    0.3336        0.3385        0.0000       10.1979       10.1979       9.859413       0.16621
  41    0.4307        0.3385        0.0000       10.1961       10.1961       9.857582       0.15925
  40    0.5894        0.3385        0.0000       10.1932       10.1932       9.854722       0.15210
  39     1.339        0.3385        0.0000       10.1817       10.1817       9.843185       0.12988
  38     1.782        0.3385        0.0000       10.1762       10.1762       9.837682       0.10477
  37     2.292        0.3385        0.0000       10.1707       10.1707       9.832250       0.08996
  36     2.964        0.3385        0.0000       10.1648       10.1648       9.826354       0.07402
  35     3.853        0.3385        0.0000       10.1586       10.1586       9.820167       0.05872
  34     5.035        0.3385        0.0000       10.1523       10.1523       9.813858       0.04507
  33     6.613        0.3385        0.0000       10.1458       10.1459       9.807427       0.03438
  32     8.786        0.3384        0.0001       10.1388       10.1389       9.800443       0.02712
  31     11.80        0.3384        0.0001       10.1298       10.1299       9.791435       0.02522
  30     15.07        0.3384        0.0001       10.1199       10.1200       9.781591       0.02541
  29     18.79        0.3384        0.0001       10.1079       10.1080       9.769628       0.02712
  28     23.16        0.3384        0.0001       10.0926       10.0928       9.754381       0.02948
  27     28.12        0.3384        0.0002       10.0736       10.0737       9.735360       0.03233
  26     33.73        0.3383        0.0002       10.0505       10.0507       9.712357       0.03459
  25     40.54        0.3383        0.0002       10.0207       10.0209       9.682575       0.03695
  24     48.69        0.3383        0.0003        9.9826        9.9829       9.644564       0.03934
  23     57.69        0.3383        0.0003        9.9392        9.9395       9.601215       0.04063
  22     68.43        0.3382        0.0004        9.8866        9.8870       9.548726       0.04126
  21     81.20        0.3382        0.0004        9.8244        9.8249       9.486643       0.04102
  20     96.49        0.3382        0.0005        9.7529        9.7534       9.415212       0.03942
  19     114.6        0.3382        0.0006        9.6706        9.6713       9.333053       0.03836
  18     136.5        0.3382        0.0007        9.5826        9.5833       9.245123       0.03381
  17     162.9        0.3382        0.0009        9.4895        9.4903       9.152078       0.02974
  16     196.4        0.3383        0.0010        9.3823        9.3833       9.045008       0.02695
  15     218.7        0.3384        0.0011        9.3156        9.3167       8.978329       0.02532
  14     243.0        0.3385        0.0012        9.2453        9.2466       8.908032       0.02438
  13     269.0        0.3387        0.0014        9.1679        9.1693       8.830577       0.02513
  12     297.5        0.3389        0.0015        9.0802        9.0817       8.742719       0.02606
  11     328.5        0.3393        0.0016        8.9784        8.9800       8.640703       0.02774
  10     361.9        0.3398        0.0018        8.8590        8.8607       8.520939       0.03030
   9     398.1        0.3405        0.0019        8.7193        8.7212       8.380713       0.03267
   8     437.6        0.3414        0.0021        8.5547        8.5567       8.215344       0.03536
   7     480.5        0.3426        0.0022        8.3632        8.3654       8.022781       0.03782
   6     533.0        0.3445        0.0024        8.1077        8.1101       7.765530       0.04138
   5     589.8        0.3472        0.0026        7.8160        7.8186       7.471415       0.04366
   4     651.6        0.3509        0.0027        7.4915        7.4942       7.143324       0.04487
   3     718.7        0.3561        0.0029        7.1466        7.1494       6.793386       0.04398
   2     792.3        0.3632        0.0030        6.7901        6.7931       6.429910       0.04169
   1     891.5        0.3762        0.0032        6.3440        6.3472       5.970969       0.03905
   0    1013.0        0.3988        0.0034        5.8628        5.8661       5.467286       0.03497



 Wavenumbers:  5150. -  6150. cm-1, ATM      1
 LEVEL PRESSURE   UPWARD FLUX   DIFDOWN FLUX  DIRDOWN FLUX  DOWNWARD FLUX   NET FLUX    HEATING RATE
          mb          W/m2          W/m2          W/m2        W/m2          W/m2       degree/day
  51    .06700        2.7858        0.0000       25.5798       25.5798      22.794012       0.00000
  50    .07753        2.7858        0.0000       25.5798       25.5798      22.794011       0.00019
  49    .09103        2.7858        0.0000       25.5798       25.5798      22.794011       0.00019
  48    0.1069        2.7858        0.0000       25.5798       25.5798      22.794011       0.00018
  47    0.1255        2.7858        0.0000       25.5798       25.5798      22.794010       0.00018
  46    0.1487        2.7858        0.0000       25.5798       25.5798      22.794010       0.00018
  45    0.1794        2.7858        0.0000       25.5798       25.5798      22.794009       0.00019
  44    0.2165        2.7858        0.0000       25.5798       25.5798      22.794008       0.00018
  43    0.2613        2.7858        0.0000       25.5798       25.5798      22.794007       0.00018
  42    0.3336        2.7858        0.0000       25.5798       25.5798      22.794006       0.00019
  41    0.4307        2.7858        0.0000       25.5798       25.5798      22.794004       0.00019
  40    0.5894        2.7858        0.0000       25.5798       25.5798      22.794000       0.00019
  39     1.339        2.7858        0.0000       25.5797       25.5798      22.793978       0.00024
  38     1.782        2.7858        0.0000       25.5797       25.5797      22.793961       0.00032
  37     2.292        2.7866        0.0001       23.1477       23.1478      20.361217      40.29259
  36     2.964        2.7870        0.0001       22.8424       22.8425      20.055582       3.83665
  35     3.853        2.7872        0.0001       22.6732       22.6733      19.886087       1.60853
  34     5.035        2.7874        0.0001       22.5624       22.5625      19.775185       0.79224
  33     6.613        2.7875        0.0002       22.4847       22.4849      19.697412       0.41577
  32     8.786        2.7876        0.0002       22.4284       22.4287      19.641087       0.21875
  31     11.80        2.7876        0.0003       22.3845       22.3848      19.597189       0.12290
  30     15.07        2.7877        0.0004       22.3560       22.3563      19.568668       0.07363
  29     18.79        2.7877        0.0005       22.3348       22.3353      19.547594       0.04778
  28     23.16        2.7877        0.0006       22.3170       22.3176      19.529929       0.03416
  27     28.12        2.7877        0.0007       22.3010       22.3017      19.514002       0.02707
  26     33.73        2.7877        0.0008       22.2862       22.2870      19.499349       0.02203
  25     40.54        2.7877        0.0010       22.2623       22.2633      19.475599       0.02946
  24     48.69        2.7877        0.0012       22.2379       22.2390      19.451325       0.02512
  23     57.69        2.7877        0.0014       22.2151       22.2164      19.428710       0.02120
  22     68.43        2.7878        0.0016       22.1920       22.1936      19.405867       0.01796
  21     81.20        2.7878        0.0019       22.1687       22.1706      19.382819       0.01523
  20     96.49        2.7879        0.0023       22.1450       22.1473      19.359410       0.01292
  19     114.6        2.7879        0.0027       22.1190       22.1217      19.333805       0.01196
  18     136.5        2.7880        0.0032       22.0898       22.0930      19.304985       0.01108
  17     162.9        2.7880        0.0038       22.0575       22.0613      19.273273       0.01014
  16     196.4        2.7881        0.0046       22.0153       22.0198      19.231723       0.01046
  15     218.7        2.7882        0.0051       21.9727       21.9778      19.189556       0.01601
  14     243.0        2.7883        0.0056       21.9256       21.9313      19.142971       0.01616
  13     269.0        2.7884        0.0062       21.8462       21.8524      19.064046       0.02560
  12     297.5        2.7886        0.0068       21.7136       21.7204      18.931783       0.03923
  11     328.5        2.7889        0.0075       21.5004       21.5079      18.718983       0.05786
  10     361.9        2.7895        0.0081       21.1724       21.1805      18.391086       0.08296
   9     398.1        2.7903        0.0088       20.6984       20.7071      17.916864       0.11048
   8     437.6        2.7915        0.0094       20.0605       20.0699      17.278318       0.13653
   7     480.5        2.7935        0.0099       19.2678       19.2777      16.484281       0.15595
   6     533.0        2.7970        0.0105       18.2357       18.2462      15.449170       0.16652
   5     589.8        2.8027        0.0110       17.1848       17.1958      14.393042       0.15676
   4     651.6        2.8122        0.0115       16.2041       16.2156      13.403337       0.13534
   3     718.7        2.8274        0.0121       15.3802       15.3923      12.564977       0.10536
   2     792.3        2.8516        0.0128       14.7040       14.7168      11.865163       0.08026
   1     891.5        2.9026        0.0138       14.0104       14.0241      11.121497       0.06328
   0    1013.0        3.0061        0.0149       13.3070       13.3220      10.315918       0.05594



 Wavenumbers:  6150. -  7700. cm-1, ATM      1
 LEVEL PRESSURE   UPWARD FLUX   DIFDOWN FLUX  DIRDOWN FLUX  DOWNWARD FLUX   NET FLUX    HEATING RATE
          mb          W/m2          W/m2          W/m2        W/m2          W/m2       degree/day
  51    .06700        4.6568        0.0000       47.3109       47.3109      42.654100       0.00000
  50    .07753        4.6568        0.0000       47.3108       47.3108      42.654084       0.01303
  49    .09103        4.6568        0.0000       47.3108       47.3108      42.654064       0.01277
  48    0.1069        4.6568        0.0000       47.3108       47.3108      42.654040       0.01250
  47    0.1255        4.6568        0.0000       47.3108       47.3108      42.654013       0.01223
  46    0.1487        4.6568        0.0000       47.3107       47.3107      42.653979       0.01241
  45    0.1794        4.6567        0.0000       47.3107       47.3107      42.653933       0.01276
  44    0.2165        4.6567        0.0000       47.3106       47.3106      42.653878       0.01252
  43    0.2613        4.6567        0.0000       47.3105       47.3106      42.653813       0.01228
  42    0.3336        4.6567        0.0000       47.3104       47.3104      42.653705       0.01256
  41    0.4307        4.6567        0.0000       47.3102       47.3103      42.653562       0.01242
  40    0.5894        4.6567        0.0001       47.3100       47.3100      42.653329       0.01240
  39     1.339        4.6566        0.0001       47.3087       47.3089      42.652227       0.01240
  38     1.782        4.6566        0.0002       47.3080       47.3082      42.651581       0.01230
  37     2.292        4.6576        0.0003       43.1292       43.1295      38.471855      69.22717
  36     2.964        4.6580        0.0004       42.7133       42.7137      38.055662       5.22448
  35     3.853        4.6583        0.0005       42.4836       42.4840      37.825753       2.18188
  34     5.035        4.6584        0.0006       42.3341       42.3348      37.676317       1.06751
  33     6.613        4.6585        0.0008       42.2301       42.2308      37.572361       0.55575
  32     8.786        4.6584        0.0010       42.1551       42.1561      37.497706       0.28993
  31     11.80        4.6583        0.0013       42.0972       42.0985      37.440241       0.16088
  30     15.07        4.6581        0.0016       42.0599       42.0615      37.403443       0.09501
  29     18.79        4.6578        0.0020       42.0324       42.0344      37.376631       0.06079
  28     23.16        4.6575        0.0024       42.0095       42.0119      37.354450       0.04289
  27     28.12        4.6571        0.0029       41.9889       41.9918      37.334711       0.03356
  26     33.73        4.6566        0.0035       41.9701       41.9736      37.316944       0.02671
  25     40.54        4.6561        0.0042       41.9405       41.9447      37.288591       0.03518
  24     48.69        4.6555        0.0050       41.9109       41.9159      37.260405       0.02917
  23     57.69        4.6548        0.0059       41.8836       41.8895      37.234745       0.02405
  22     68.43        4.6539        0.0069       41.8562       41.8632      37.209293       0.02001
  21     81.20        4.6528        0.0082       41.8285       41.8367      37.183892       0.01678
  20     96.49        4.6516        0.0097       41.8000       41.8097      37.158143       0.01421
  19     114.6        4.6501        0.0115       41.7672       41.7788      37.128662       0.01377
  18     136.5        4.6484        0.0137       41.7288       41.7425      37.094161       0.01327
  17     162.9        4.6463        0.0162       41.6836       41.6998      37.053551       0.01298
  16     196.4        4.6436        0.0196       41.6192       41.6388      36.995179       0.01469
  15     218.7        4.6419        0.0217       41.5500       41.5717      36.929823       0.02481
  14     243.0        4.6400        0.0241       41.4716       41.4956      36.855611       0.02574
  13     269.0        4.6381        0.0266       41.3388       41.3654      36.727258       0.04164
  12     297.5        4.6362        0.0293       41.1171       41.1463      36.510100       0.06441
  11     328.5        4.6345        0.0321       40.7586       40.7907      36.156190       0.09623
  10     361.9        4.6331        0.0349       40.1998       40.2347      35.601622       0.14031
   9     398.1        4.6323        0.0377       39.3745       39.4122      34.779908       0.19144
   8     437.6        4.6326        0.0403       38.2366       38.2770      33.644345       0.24279
   7     480.5        4.6348        0.0427       36.7854       36.8281      32.193318       0.28498
   6     533.0        4.6410        0.0451       34.8167       34.8619      30.220874       0.31730
   5     589.8        4.6534        0.0472       32.6611       32.7083      28.054893       0.32150
   4     651.6        4.6762        0.0489       30.4428       30.4917      25.815475       0.30625
   3     718.7        4.7145        0.0506       28.3323       28.3828      23.668383       0.26983
   2     792.3        4.7777        0.0521       26.3491       26.4012      21.623467       0.23453
   1     891.5        4.9138        0.0542       24.1138       24.1679      19.254111       0.20162
   0    1013.0        5.2027        0.0566       21.9889       22.0455      16.842789       0.16743



 Wavenumbers:  7700. -  8050. cm-1, ATM      1
 LEVEL PRESSURE   UPWARD FLUX   DIFDOWN FLUX  DIRDOWN FLUX  DOWNWARD FLUX   NET FLUX    HEATING RATE
          mb          W/m2          W/m2          W/m2        W/m2          W/m2       degree/day
  51    .06700        5.7099        0.0000       11.1810       11.1810       5.471077       0.00000
  50    .07753        5.7099        0.0000       11.1809       11.1810       5.471056       0.01734
  49    .09103        5.7099        0.0000       11.1809       11.1809       5.471029       0.01699
  48    0.1069        5.7099        0.0000       11.1809       11.1809       5.470997       0.01663
  47    0.1255        5.7099        0.0000       11.1809       11.1809       5.470961       0.01628
  46    0.1487        5.7099        0.0000       11.1808       11.1808       5.470916       0.01652
  45    0.1794        5.7099        0.0000       11.1808       11.1808       5.470854       0.01700
  44    0.2165        5.7099        0.0000       11.1807       11.1807       5.470781       0.01667
  43    0.2613        5.7100        0.0000       11.1806       11.1806       5.470694       0.01636
  42    0.3336        5.7100        0.0000       11.1805       11.1805       5.470551       0.01674
  41    0.4307        5.7100        0.0000       11.1804       11.1804       5.470360       0.01656
  40    0.5894        5.7101        0.0000       11.1801       11.1801       5.470049       0.01654
  39     1.339        5.7103        0.0001       11.1788       11.1789       5.468578       0.01657
  38     1.782        5.7105        0.0001       11.1781       11.1782       5.467713       0.01646
  37     2.292        5.7106        0.0002       11.1772       11.1773       5.466713       0.01657
  36     2.964        5.7108        0.0002       11.1760       11.1762       5.465399       0.01649
  35     3.853        5.7111        0.0003       11.1745       11.1748       5.463664       0.01647
  34     5.035        5.7115        0.0003       11.1725       11.1728       5.461359       0.01647
  33     6.613        5.7120        0.0004       11.1699       11.1703       5.458280       0.01646
  32     8.786        5.7127        0.0005       11.1663       11.1668       5.454133       0.01611
  31     11.80        5.7137        0.0007       11.1612       11.1619       5.448204       0.01660
  30     15.07        5.7148        0.0009       11.1557       11.1566       5.441844       0.01642
  29     18.79        5.7160        0.0011       11.1496       11.1507       5.434667       0.01627
  28     23.16        5.7174        0.0013       11.1424       11.1437       5.426294       0.01619
  27     28.12        5.7191        0.0016       11.1342       11.1358       5.416736       0.01625
  26     33.73        5.7209        0.0019       11.1251       11.1270       5.406059       0.01605
  25     40.54        5.7231        0.0023       11.1141       11.1163       5.393191       0.01596
  24     48.69        5.7259        0.0027       11.1009       11.1036       5.377724       0.01601
  23     57.69        5.7289        0.0032       11.0865       11.0897       5.360793       0.01587
  22     68.43        5.7325        0.0038       11.0694       11.0732       5.340710       0.01579
  21     81.20        5.7368        0.0045       11.0492       11.0537       5.316900       0.01573
  20     96.49        5.7420        0.0053       11.0254       11.0306       5.288696       0.01557
  19     114.6        5.7482        0.0063       10.9973       11.0036       5.255385       0.01555
  18     136.5        5.7557        0.0074       10.9645       10.9719       5.216229       0.01506
  17     162.9        5.7647        0.0088       10.9260       10.9347       5.170038       0.01476
  16     196.4        5.7766        0.0106       10.8769       10.8874       5.110792       0.01491
  15     218.7        5.7846        0.0117       10.8451       10.8568       5.072214       0.01465
  14     243.0        5.7934        0.0130       10.8110       10.8240       5.030580       0.01444
  13     269.0        5.8031        0.0143       10.7745       10.7888       4.985730       0.01455
  12     297.5        5.8137        0.0158       10.7354       10.7512       4.937500       0.01430
  11     328.5        5.8255        0.0174       10.6937       10.7111       4.885567       0.01412
  10     361.9        5.8386        0.0191       10.6492       10.6683       4.829716       0.01413
   9     398.1        5.8530        0.0210       10.6015       10.6225       4.769492       0.01403
   8     437.6        5.8692        0.0229       10.5506       10.5735       4.704387       0.01392
   7     480.5        5.8872        0.0251       10.4959       10.5210       4.633709       0.01388
   6     533.0        5.9108        0.0277       10.4280       10.4557       4.544879       0.01429
   5     589.8        5.9379        0.0305       10.3540       10.3844       4.446490       0.01460
   4     651.6        5.9695        0.0335       10.2724       10.3058       4.336302       0.01507
   3     718.7        6.0065        0.0367       10.1823       10.2190       4.212474       0.01556
   2     792.3        6.0501        0.0401       10.0823       10.1224       4.072254       0.01608
   1     891.5        6.1161        0.0446        9.9415        9.9861       3.869993       0.01721
   0    1013.0        6.2064        0.0500        9.7650        9.8150       3.608632       0.01815



 Wavenumbers:  8050. - 12850. cm-1, ATM      1
 LEVEL PRESSURE   UPWARD FLUX   DIFDOWN FLUX  DIRDOWN FLUX  DOWNWARD FLUX   NET FLUX    HEATING RATE
          mb          W/m2          W/m2          W/m2        W/m2          W/m2       degree/day
  51    .06700      103.3045        0.0000      156.5418      156.5418      53.237236       0.00000
  50    .07753      103.3045        0.0000      156.5417      156.5417      53.237236       0.00000
  49    .09103      103.3045        0.0001      156.5417      156.5417      53.237236      -0.00000
  48    0.1069      103.3045        0.0001      156.5416      156.5417      53.237236       0.00000
  47    0.1255      103.3045        0.0002      156.5415      156.5417      53.237236      -0.00000
  46    0.1487      103.3044        0.0002      156.5414      156.5417      53.237236       0.00000
  45    0.1794      103.3044        0.0003      156.5413      156.5416      53.237236       0.00000
  44    0.2165      103.3044        0.0004      156.5412      156.5416      53.237236      -0.00000
  43    0.2613      103.3043        0.0006      156.5410      156.5415      53.237236      -0.00000
  42    0.3336      103.3042        0.0008      156.5407      156.5415      53.237236       0.00000
  41    0.4307      103.3041        0.0011      156.5403      156.5414      53.237236       0.00000
  40    0.5894      103.3040        0.0015      156.5397      156.5412      53.237236      -0.00000
  39     1.339      103.3032        0.0037      156.5367      156.5404      53.237236      -0.00000
  38     1.782      103.3027        0.0050      156.5350      156.5400      53.237236       0.00000
  37     2.292      103.3015        0.0085      156.5302      156.5387      53.237236      -0.00000
  36     2.964      103.3006        0.0111      156.5267      156.5378      53.237236       0.00000
  35     3.853      103.2995        0.0141      156.5227      156.5368      53.237236       0.00000
  34     5.035      103.2983        0.0177      156.5178      156.5355      53.237236      -0.00000
  33     6.613      103.2966        0.0224      156.5114      156.5338      53.237236       0.00000
  32     8.786      103.2944        0.0286      156.5030      156.5316      53.237236      -0.00000
  31     11.80      103.2912        0.0375      156.4909      156.5285      53.237236       0.00000
  30     15.07      103.2879        0.0471      156.4780      156.5251      53.237236      -0.00000
  29     18.79      103.2840        0.0578      156.4635      156.5213      53.237236       0.00000
  28     23.16      103.2796        0.0704      156.4464      156.5168      53.237236      -0.00000
  27     28.12      103.2745        0.0848      156.4269      156.5117      53.237236       0.00000
  26     33.73      103.2688        0.1009      156.4051      156.5060      53.237236      -0.00000
  25     40.54      103.2618        0.1205      156.3786      156.4991      53.237236       0.00000
  24     48.69      103.2535        0.1440      156.3467      156.4907      53.237236      -0.00000
  23     57.69      103.2443        0.1699      156.3116      156.4816      53.237236      -0.00000
  22     68.43      103.2334        0.2009      156.2697      156.4706      53.237236       0.00000
  21     81.20      103.2203        0.2378      156.2198      156.4575      53.237236       0.00000
  20     96.49      103.2047        0.2818      156.1601      156.4419      53.237236       0.00000
  19     114.6      103.1906        0.3341      155.9801      156.3142      53.123623       0.05305
  18     136.5      103.1727        0.3962      155.7950      156.1912      53.018562       0.04040
  17     162.9      103.1498        0.4703      155.6002      156.0705      52.920693       0.03128
  16     196.4      103.1185        0.5667      155.3600      155.9267      52.808165       0.02832
  15     218.7      103.0980        0.6300      155.1659      155.7959      52.697914       0.04186
  14     243.0      103.0755        0.6991      154.9664      155.6655      52.589993       0.03743
  13     269.0      103.0522        0.7739      154.7007      155.4745      52.422322       0.05439
  12     297.5      103.0293        0.8547      154.3494      155.2042      52.174874       0.07339
  11     328.5      103.0081        0.9420      153.8924      154.8344      51.826216       0.09480
  10     361.9      102.9915        1.0358      153.3001      154.3359      51.344412       0.12190
   9     398.1      102.9835        1.1363      152.5228      153.6590      50.675495       0.15584
   8     437.6      102.9910        1.2435      151.4942      152.7377      49.746691       0.19858
   7     480.5      103.0241        1.3571      150.1521      151.5092      48.485119       0.24777
   6     533.0      103.1124        1.4947      148.1838      149.6785      46.566065       0.30871
   5     589.8      103.2847        1.6401      145.7191      147.3592      44.074537       0.36982
   4     651.6      103.5940        1.7920      142.7039      144.4958      40.901843       0.43387
   3     718.7      104.1005        1.9505      139.2577      141.2081      37.107674       0.47682
   2     792.3      104.9211        2.1147      135.4135      137.5282      32.607047       0.51617
   1     891.5      106.6283        2.3278      130.2205      132.5483      25.920018       0.56903
   0    1013.0      109.9204        2.5742      124.2606      126.8348      16.914404       0.62531



 Wavenumbers: 12850. - 16000. cm-1, ATM      1
 LEVEL PRESSURE   UPWARD FLUX   DIFDOWN FLUX  DIRDOWN FLUX  DOWNWARD FLUX   NET FLUX    HEATING RATE
          mb          W/m2          W/m2          W/m2        W/m2          W/m2       degree/day
  51    .06700       82.3803        0.0000       98.0872       98.0872      15.706943       0.00000
  50    .07753       82.3803        0.0001       98.0864       98.0864      15.706150       0.63575
  49    .09103       82.3803        0.0002       98.0853       98.0855      15.705154       0.62284
  48    0.1069       82.3803        0.0003       98.0841       98.0843      15.704008       0.60972
  47    0.1255       82.3803        0.0004       98.0826       98.0830      15.702692       0.59691
  46    0.1487       82.3804        0.0005       98.0809       98.0814      15.701029       0.60605
  45    0.1794       82.3804        0.0007       98.0784       98.0792      15.698766       0.62127
  44    0.2165       82.3805        0.0010       98.0756       98.0766      15.696102       0.60600
  43    0.2613       82.3806        0.0013       98.0723       98.0736      15.692967       0.59099
  42    0.3336       82.3809        0.0017       98.0670       98.0688      15.687844       0.59720
  41    0.4307       82.3814        0.0024       98.0602       98.0626      15.681213       0.57659
  40    0.5894       82.3823        0.0034       98.0496       98.0530      15.670746       0.55663
  39     1.339       82.3896        0.0083       98.0043       98.0126      15.623033       0.53716
  38     1.782       82.3962        0.0112       97.9793       97.9905      15.594205       0.54884
  37     2.292       82.4048        0.0191       97.9439       97.9630      15.558176       0.59674
  36     2.964       82.4206        0.0249       97.9010       97.9259      15.505335       0.66331
  35     3.853       82.4465        0.0315       97.8416       97.8730      15.426503       0.74814
  34     5.035       82.4857        0.0395       97.7586       97.7982      15.312522       0.81423
  33     6.613       82.5404        0.0500       97.6465       97.6965      15.156118       0.83613
  32     8.786       82.6117        0.0639       97.5008       97.5647      14.952955       0.78901
  31     11.80       82.7047        0.0836       97.3078       97.3914      14.686738       0.74532
  30     15.07       82.7940        0.1047       97.1182       97.2229      14.428968       0.66551
  29     18.79       82.8853        0.1285       96.9199       97.0484      14.163082       0.60285
  28     23.16       82.9810        0.1563       96.7064       96.8627      13.881660       0.54418
  27     28.12       83.0776        0.1880       96.4833       96.6713      13.593666       0.48957
  26     33.73       83.1674        0.2235       96.2628       96.4864      13.318987       0.41299
  25     40.54       83.2546        0.2665       96.0305       96.2970      13.042351       0.34320
  24     48.69       83.3391        0.3182       95.7843       96.1025      12.763373       0.28870
  23     57.69       83.4119        0.3750       95.5470       95.9220      12.510083       0.23742
  22     68.43       83.4770        0.4428       95.3003       95.7431      12.266065       0.19183
  21     81.20       83.5249        0.5236       95.0540       95.5776      12.052763       0.14095
  20     96.49       83.5544        0.6200       94.8049       95.4250      11.870554       0.10057
  19     114.6       83.5878        0.7357       94.5291       95.2647      11.676918       0.09041
  18     136.5       83.6156        0.8727       94.2186       95.0913      11.475700       0.07737
  17     162.9       83.6378        1.0359       93.8604       94.8963      11.258516       0.06942
  16     196.4       83.6438        1.2476       93.4182       94.6658      11.021988       0.05954
  15     218.7       83.6396        1.3866       93.1336       94.5202      10.880525       0.05371
  14     243.0       83.6315        1.5377       92.8266       94.3643      10.732788       0.05124
  13     269.0       83.6192        1.7014       92.4957       94.1971      10.577931       0.05023
  12     297.5       83.6030        1.8783       92.1393       94.0176      10.414563       0.04845
  11     328.5       83.5853        2.0695       91.7529       93.8224      10.237125       0.04824
  10     361.9       83.5668        2.2754       91.3341       93.6095      10.042671       0.04920
   9     398.1       83.5491        2.4969       90.8792       93.3760       9.826948       0.05026
   8     437.6       83.5348        2.7347       90.3820       93.1167       9.581952       0.05238
   7     480.5       83.5271        2.9895       89.8362       92.8257       9.298549       0.05566
   6     533.0       83.5328        3.3028       89.1400       92.4427       8.909959       0.06251
   5     589.8       83.5635        3.6399       88.3529       91.9928       8.429278       0.07135
   4     651.6       83.6351        4.0009       87.4568       91.4578       7.822640       0.08296
   3     718.7       83.7636        4.3864       86.4429       90.8293       7.065682       0.09513
   2     792.3       83.9795        4.7956       85.2934       90.0890       6.109549       0.10966
   1     891.5       84.4090        5.3408       83.6821       89.0230       4.613927       0.12727
   0    1013.0       85.1549        5.9865       81.7257       87.7122       2.557240       0.14281



 Wavenumbers: 16000. - 22650. cm-1, ATM      1
 LEVEL PRESSURE   UPWARD FLUX   DIFDOWN FLUX  DIRDOWN FLUX  DOWNWARD FLUX   NET FLUX    HEATING RATE
          mb          W/m2          W/m2          W/m2        W/m2          W/m2       degree/day
  51    .06700      141.2635        0.0000      156.3892      156.3892      15.125759       0.00000
  50    .07753      141.2635        0.0004      156.3887      156.3891      15.125611       0.11862
  49    .09103      141.2634        0.0009      156.3879      156.3888      15.125396       0.13455
  48    0.1069      141.2634        0.0015      156.3871      156.3885      15.125108       0.15343
  47    0.1255      141.2635        0.0021      156.3861      156.3882      15.124722       0.17489
  46    0.1487      141.2635        0.0030      156.3847      156.3877      15.124153       0.20724
  45    0.1794      141.2636        0.0041      156.3828      156.3869      15.123264       0.24401
  44    0.2165      141.2639        0.0054      156.3805      156.3859      15.122059       0.27423
  43    0.2613      141.2642        0.0070      156.3776      156.3846      15.120423       0.30831
  42    0.3336      141.2650        0.0097      156.3726      156.3823      15.117314       0.36256
  41    0.4307      141.2662        0.0132      156.3657      156.3789      15.112626       0.40756
  40    0.5894      141.2689        0.0189      156.3537      156.3725      15.103687       0.47540
  39     1.339      141.2916        0.0459      156.2834      156.3293      15.037639       0.74357
  38     1.782      141.3127        0.0617      156.2324      156.2941      14.981375       1.07119
  37     2.292      141.3384        0.1054      156.1329      156.2384      14.899933       1.34889
  36     2.964      141.3890        0.1377      156.0193      156.1570      14.767999       1.65617
  35     3.853      141.4728        0.1736      155.8578      156.0314      14.558653       1.98673
  34     5.035      141.6000        0.2182      155.6282      155.8464      14.246326       2.23114
  33     6.613      141.7783        0.2758      155.3147      155.5906      13.812280       2.32041
  32     8.786      142.0107        0.3524      154.9058      155.2582      13.247483       2.19347
  31     11.80      142.3134        0.4610      154.3629      154.8240      12.510558       2.06316
  30     15.07      142.6034        0.5772      153.8278      154.4051      11.801650       1.83026
  29     18.79      142.8996        0.7081      153.2665      153.9747      11.075074       1.64737
  28     23.16      143.2091        0.8608      152.6600      153.5208      10.311616       1.47628
  27     28.12      143.5207        1.0350      152.0230      153.0580       9.537329       1.31624
  26     33.73      143.8083        1.2297      151.3886      152.6183       8.810029       1.09352
  25     40.54      144.0851        1.4648      150.7114      152.1763       8.091183       0.89181
  24     48.69      144.3502        1.7480      149.9817      151.7297       7.379501       0.73648
  23     57.69      144.5751        2.0586      149.2632      151.3218       6.746734       0.59312
  22     68.43      144.7713        2.4282      148.4958      150.9240       6.152722       0.46697
  21     81.20      144.9070        2.8682      147.7001      150.5683       5.661328       0.32471
  20     96.49      144.9777        3.3920      146.8614      150.2534       5.275701       0.21284
  19     114.6      145.0148        4.0122      145.9251      149.9372       4.922462       0.16494
  18     136.5      145.0271        4.7444      144.8576      149.6021       4.574962       0.13362
  17     162.9      145.0131        5.6124      143.6276      149.2400       4.226888       0.11126
  16     196.4      144.9329        6.7322      142.1144      148.8466       3.913753       0.07882
  15     218.7      144.8576        7.4641      141.1528      148.6169       3.759342       0.05862
  14     243.0      144.7651        8.2562      140.1252      148.3814       3.616259       0.04963
  13     269.0      144.6540        9.1107      139.0303      148.1409       3.486909       0.04196
  12     297.5      144.5235       10.0296      137.8659      147.8955       3.372015       0.03408
  11     328.5      144.3777       11.0173      136.6211      147.6384       3.260789       0.03024
  10     361.9      144.2162       12.0747      135.2949      147.3696       3.153382       0.02717
   9     398.1      144.0388       13.2058      133.8820      147.0878       3.049026       0.02431
   8     437.6      143.8461       14.4126      132.3784      146.7910       2.944906       0.02226
   7     480.5      143.6380       15.6973      130.7813      146.4786       2.840612       0.02048
   6     533.0      143.3818       17.2664      128.8330      146.0994       2.717588       0.01979
   5     589.8      143.1086       18.9429      126.7507      145.6936       2.585014       0.01968
   4     651.6      142.8209       20.7280      124.5294      145.2575       2.436559       0.02030
   3     718.7      142.5206       22.6236      122.1653      144.7888       2.268197       0.02116
   2     792.3      142.2136       24.6275      119.6551      144.2826       2.069026       0.02284
   1     891.5      141.8274       27.2888      116.3005      143.5893       1.761889       0.02614
   0    1013.0      141.3999       30.4189      112.3348      142.7537       1.353813       0.02833



 Wavenumbers: 22650. - 29000. cm-1, ATM      1
 LEVEL PRESSURE   UPWARD FLUX   DIFDOWN FLUX  DIRDOWN FLUX  DOWNWARD FLUX   NET FLUX    HEATING RATE
          mb          W/m2          W/m2          W/m2        W/m2          W/m2       degree/day
  51    .06700       58.6820        0.0000       59.0156       59.0156       0.333640       0.00000
  50    .07753       58.6819        0.0005       59.0151       59.0155       0.333640       0.00000
  49    .09103       58.6818        0.0010       59.0144       59.0154       0.333640      -0.00000
  48    0.1069       58.6816        0.0017       59.0136       59.0153       0.333640       0.00000
  47    0.1255       58.6815        0.0025       59.0127       59.0151       0.333640      -0.00000
  46    0.1487       58.6813        0.0035       59.0115       59.0149       0.333640       0.00000
  45    0.1794       58.6810        0.0048       59.0099       59.0147       0.333640      -0.00000
  44    0.2165       58.6807        0.0063       59.0080       59.0144       0.333640       0.00000
  43    0.2613       58.6804        0.0082       59.0058       59.0140       0.333640      -0.00000
  42    0.3336       58.6798        0.0113       59.0022       59.0134       0.333640       0.00000
  41    0.4307       58.6790        0.0154       58.9973       59.0127       0.333640       0.00000
  40    0.5894       58.6777        0.0220       58.9894       59.0114       0.333640      -0.00000
  39     1.339       58.6717        0.0535       58.9518       59.0053       0.333640       0.00000
  38     1.782       58.6681        0.0720       58.9297       59.0017       0.333640       0.00000
  37     2.292       58.6583        0.1231       58.8689       58.9919       0.333640       0.00000
  36     2.964       58.6510        0.1607       58.8240       58.9847       0.333640      -0.00000
  35     3.853       58.6430        0.2026       58.7740       58.9766       0.333640      -0.00000
  34     5.035       58.6329        0.2547       58.7119       58.9666       0.333640       0.00000
  33     6.613       58.6200        0.3221       58.6315       58.9536       0.333640      -0.00000
  32     8.786       58.6027        0.4117       58.5247       58.9364       0.333640      -0.00000
  31     11.80       58.5782        0.5388       58.3731       58.9119       0.333640       0.00000
  30     15.07       58.5521        0.6746       58.2111       58.8857       0.333640      -0.00000
  29     18.79       58.5226        0.8276       58.0286       58.8563       0.333640       0.00000
  28     23.16       58.4883        1.0058       57.8162       58.8220       0.333640      -0.00000
  27     28.12       58.4492        1.2089       57.5740       58.7828       0.333640       0.00000
  26     33.73       58.4056        1.4353       57.3039       58.7392       0.333640      -0.00000
  25     40.54       58.3531        1.7078       56.9789       58.6867       0.333640       0.00000
  24     48.69       58.2902        2.0345       56.5893       58.6238       0.333640      -0.00000
  23     57.69       58.2215        2.3912       56.1639       58.5551       0.333640       0.00000
  22     68.43       58.1402        2.8130       55.6608       58.4738       0.333640       0.00000
  21     81.20       58.0442        3.3111       55.0668       58.3778       0.333640       0.00000
  20     96.49       57.9310        3.8983       54.3664       58.2647       0.333640      -0.00000
  19     114.6       57.7983        4.5865       53.5455       58.1320       0.333640       0.00000
  18     136.5       57.6434        5.3898       52.5873       57.9771       0.333640      -0.00000
  17     162.9       57.4623        6.3288       51.4671       57.7959       0.333640       0.00000
  16     196.4       57.2327        7.5186       50.0477       57.5663       0.333640      -0.00000
  15     218.7       57.0850        8.2831       49.1356       57.4187       0.333640       0.00000
  14     243.0       56.9274        9.0994       48.1616       57.2610       0.333640       0.00000
  13     269.0       56.7597        9.9669       47.1265       57.0934       0.333640      -0.00000
  12     297.5       56.5823       10.8848       46.0312       56.9159       0.333640       0.00000
  11     328.5       56.3948       11.8545       44.8739       56.7284       0.333640      -0.00000
  10     361.9       56.1976       12.8734       43.6578       56.5312       0.333640       0.00000
   9     398.1       55.9907       13.9417       42.3826       56.3244       0.333640       0.00000
   8     437.6       55.7746       15.0571       41.0511       56.1082       0.333640       0.00000
   7     480.5       55.5496       16.2173       39.6659       55.8832       0.333640       0.00000
   6     533.0       55.2818       17.5974       38.0180       55.6154       0.333640      -0.00000
   5     589.8       55.0041       19.0265       36.3112       55.3377       0.333640       0.00000
   4     651.6       54.7174       20.5001       34.5509       55.0510       0.333640       0.00000
   3     718.7       54.4232       22.0100       32.7469       54.7569       0.333640       0.00000
   2     792.3       54.1236       23.5454       30.9119       54.4573       0.333640       0.00000
   1     891.5       53.7424       25.4951       28.5809       54.0760       0.333640       0.00000
   0    1013.0       53.3178       27.6598       25.9917       53.6515       0.333640      -0.00000



 Wavenumbers: 29000. - 38000. cm-1, ATM      1
 LEVEL PRESSURE   UPWARD FLUX   DIFDOWN FLUX  DIRDOWN FLUX  DOWNWARD FLUX   NET FLUX    HEATING RATE
          mb          W/m2          W/m2          W/m2        W/m2          W/m2       degree/day
  51    .06700        8.7770        0.0000       20.8114       20.8114      12.034374       0.00000
  50    .07753        8.7768        0.0003       20.8070       20.8074      12.030566       3.05218
  49    .09103        8.7766        0.0007       20.8009       20.8016      12.025028       3.46156
  48    0.1069        8.7763        0.0012       20.7928       20.7939      12.017617       3.94511
  47    0.1255        8.7760        0.0017       20.7820       20.7837      12.007710       4.49128
  46    0.1487        8.7757        0.0024       20.7665       20.7688      11.993144       5.30956
  45    0.1794        8.7752        0.0033       20.7424       20.7457      11.970474       6.22336
  44    0.2165        8.7747        0.0044       20.7103       20.7147      11.939945       6.94490
  43    0.2613        8.7742        0.0056       20.6675       20.6731      11.898941       7.72902
  42    0.3336        8.7733        0.0077       20.5880       20.5957      11.822363       8.92827
  41    0.4307        8.7722        0.0104       20.4722       20.4826      11.710384       9.73632
  40    0.5894        8.7707        0.0147       20.2637       20.2784      11.507648      10.78121
  39     1.339        8.7678        0.0331       19.0984       19.1315      10.363744      12.87829
  38     1.782        8.7687        0.0427       18.4394       18.4821       9.713376      12.38196
  37     2.292        8.7621        0.0698       17.7454       17.8151       9.053078      10.93626
  36     2.964        8.7659        0.0869       17.0095       17.0964       8.330475       9.07085
  35     3.853        8.7774        0.1043       16.2334       16.3377       7.560263       7.30946
  34     5.035        8.7979        0.1247       15.4463       15.5710       6.773107       5.62312
  33     6.613        8.8283        0.1501       14.6832       14.8332       6.004937       4.10664
  32     8.786        8.8687        0.1832       13.9626       14.1457       5.277070       2.82677
  31     11.80        8.9216        0.2292       13.2541       13.4834       4.561806       2.00251
  30     15.07        8.9726        0.2775       12.7105       12.9880       4.015452       1.41058
  29     18.79        9.0254        0.3308       12.2389       12.5698       3.544406       1.06801
  28     23.16        9.0814        0.3918       11.8034       12.1952       3.113802       0.83265
  27     28.12        9.1388        0.4601       11.4023       11.8624       2.723607       0.66331
  26     33.73        9.1919        0.5355       11.0448       11.5804       2.388512       0.50382
  25     40.54        9.2422        0.6258       10.6971       11.3229       2.080712       0.38186
  24     48.69        9.2897        0.7330       10.3512       11.0842       1.794485       0.29620
  23     57.69        9.3287        0.8490       10.0327       10.8817       1.552994       0.22636
  22     68.43        9.3603        0.9852        9.7113       10.6965       1.336190       0.17044
  21     81.20        9.3756        1.1462        9.3927       10.5389       1.163305       0.11424
  20     96.49        9.3725        1.3354        9.0688       10.4042       1.031694       0.07264
  19     114.6        9.3591        1.5541        8.7196       10.2737       0.914540       0.05470
  18     136.5        9.3386        1.8041        8.3366       10.1407       0.802124       0.04323
  17     162.9        9.3109        2.0892        7.9138       10.0029       0.692051       0.03518
  16     196.4        9.2641        2.4430        7.4162        9.8592       0.595121       0.02440
  15     218.7        9.2304        2.6652        7.1131        9.7783       0.547866       0.01794
  14     243.0        9.1935        2.8973        6.8004        9.6977       0.504228       0.01513
  13     269.0        9.1532        3.1388        6.4794        9.6182       0.465044       0.01271
  12     297.5        9.1095        3.3884        6.1516        9.5400       0.430501       0.01025
  11     328.5        9.0639        3.6451        5.8161        9.4613       0.397427       0.00899
  10     361.9        9.0168        3.9066        5.4762        9.3828       0.365970       0.00796
   9     398.1        8.9684        4.1722        5.1324        9.3046       0.336159       0.00695
   8     437.6        8.9192        4.4405        4.7861        9.2267       0.307418       0.00614
   7     480.5        8.8696        4.7094        4.4403        9.1497       0.280136       0.00536
   6     533.0        8.8127        5.0155        4.0476        9.0631       0.250401       0.00478
   5     589.8        8.7568        5.3170        3.6614        8.9784       0.221602       0.00427
   4     651.6        8.7025        5.6112        3.2848        8.8959       0.193425       0.00385
   3     718.7        8.6506        5.8953        2.9212        8.8165       0.165825       0.00347
   2     792.3        8.6018        6.1667        2.5740        8.7406       0.138805       0.00310
   1     891.5        8.5461        6.4851        2.1664        8.6515       0.105441       0.00284
   0    1013.0        8.4930        6.8049        1.7567        8.5616       0.068602       0.00256



 Wavenumbers: 38000. - 50000. cm-1, ATM      1
 LEVEL PRESSURE   UPWARD FLUX   DIFDOWN FLUX  DIRDOWN FLUX  DOWNWARD FLUX   NET FLUX    HEATING RATE
          mb          W/m2          W/m2          W/m2        W/m2          W/m2       degree/day
  51    .06700        0.0067        0.0000        1.2836        1.2836       1.276909       0.00000
  50    .07753        0.0067        0.0001        1.2812        1.2812       1.274574       1.87193
  49    .09103        0.0066        0.0002        1.2777        1.2778       1.271241       2.08291
  48    0.1069        0.0065        0.0002        1.2731        1.2734       1.266862       2.33106
  47    0.1255        0.0064        0.0004        1.2672        1.2675       1.261106       2.60958
  46    0.1487        0.0063        0.0005        1.2586        1.2591       1.252778       3.03554
  45    0.1794        0.0062        0.0007        1.2455        1.2462       1.240008       3.50581
  44    0.2165        0.0060        0.0009        1.2282        1.2291       1.223079       3.85103
  43    0.2613        0.0058        0.0011        1.2054        1.2065       1.200726       4.21332
  42    0.3336        0.0055        0.0015        1.1639        1.1654       1.159895       4.76051
  41    0.4307        0.0051        0.0020        1.1051        1.1071       1.101926       5.04032
  40    0.5894        0.0046        0.0026        1.0039        1.0064       1.001865       5.32110
  39     1.339        0.0030        0.0035        0.5438        0.5473       0.544284       5.15153
  38     1.782        0.0027        0.0032        0.3635        0.3667       0.363992       3.43247
  37     2.292        0.0014        0.0035        0.2340        0.2375       0.236084       2.11848
  36     2.964        0.0009        0.0029        0.1442        0.1470       0.146094       1.12965
  35     3.853        0.0006        0.0022        0.0849        0.0871       0.086498       0.56558
  34     5.035        0.0004        0.0016        0.0483        0.0499       0.049462       0.26457
  33     6.613        0.0003        0.0011        0.0270        0.0281       0.027841       0.11558
  32     8.786        0.0002        0.0008        0.0142        0.0150       0.014859       0.05042
  31     11.80        0.0001        0.0005        0.0065        0.0070       0.006875       0.02235
  30     15.07        0.0000        0.0003        0.0031        0.0034       0.003317       0.00918
  29     18.79        0.0000        0.0002        0.0014        0.0016       0.001578       0.00394
  28     23.16        0.0000        0.0001        0.0006        0.0007       0.000718       0.00166
  27     28.12        0.0000        0.0001        0.0003        0.0003       0.000317       0.00068
  26     33.73        0.0000        0.0000        0.0001        0.0001       0.000139       0.00027
  25     40.54        0.0000        0.0000        0.0000        0.0001       0.000057       0.00010
  24     48.69        0.0000        0.0000        0.0000        0.0000       0.000021       0.00004
  23     57.69        0.0000        0.0000        0.0000        0.0000       0.000008       0.00001
  22     68.43        0.0000        0.0000        0.0000        0.0000       0.000003       0.00000
  21     81.20        0.0000        0.0000        0.0000        0.0000       0.000001       0.00000
  20     96.49        0.0000        0.0000        0.0000        0.0000       0.000000       0.00000
  19     114.6        0.0000        0.0000        0.0000        0.0000       0.000000       0.00000
  18     136.5        0.0000        0.0000        0.0000        0.0000       0.000000       0.00000
  17     162.9        0.0000        0.0000        0.0000        0.0000       0.000000       0.00000
  16     196.4        0.0000        0.0000        0.0000        0.0000       0.000000       0.00000
  15     218.7        0.0000        0.0000        0.0000        0.0000       0.000000       0.00000
  14     243.0        0.0000        0.0000        0.0000        0.0000       0.000000       0.00000
  13     269.0        0.0000        0.0000        0.0000        0.0000       0.000000       0.00000
  12     297.5        0.0000        0.0000        0.0000        0.0000       0.000000       0.00000
  11     328.5        0.0000        0.0000        0.0000        0.0000       0.000000       0.00000
  10     361.9        0.0000        0.0000        0.0000        0.0000       0.000000       0.00000
   9     398.1        0.0000        0.0000        0.0000        0.0000       0.000000       0.00000
   8     437.6        0.0000        0.0000        0.0000        0.0000       0.000000       0.00000
   7     480.5        0.0000        0.0000        0.0000        0.0000       0.000000       0.00000
   6     533.0        0.0000        0.0000        0.0000        0.0000       0.000000       0.00000
   5     589.8        0.0000        0.0000        0.0000        0.0000       0.000000       0.00000
   4     651.6        0.0000        0.0000        0.0000        0.0000       0.000000       0.00000
   3     718.7        0.0000        0.0000        0.0000        0.0000       0.000000       0.00000
   2     792.3        0.0000        0.0000        0.0000        0.0000       0.000000       0.00000
   1     891.5        0.0000        0.0000        0.0000        0.0000       0.000000       0.00000
   0    1013.0        0.0000        0.0000        0.0000        0.0000       0.000000       0.00000



 Wavenumbers:   820. -  2600. cm-1, ATM      1
 LEVEL PRESSURE   UPWARD FLUX   DIFDOWN FLUX  DIRDOWN FLUX  DOWNWARD FLUX   NET FLUX    HEATING RATE
          mb          W/m2          W/m2          W/m2        W/m2          W/m2       degree/day
  51    .06700        0.0101        0.0000        6.0047        6.0047       5.994536       0.00000
  50    .07753        0.0101        0.0000        6.0009        6.0009       5.990756       3.02937
  49    .09103        0.0101        0.0000        6.0001        6.0001       5.989966       0.49378
  48    0.1069        0.0101        0.0000        5.9992        5.9992       5.989091       0.46572
  47    0.1255        0.0101        0.0000        5.9982        5.9982       5.988110       0.44470
  46    0.1487        0.0101        0.0000        5.9970        5.9970       5.986932       0.42941
  45    0.1794        0.0101        0.0000        5.9956        5.9956       5.985466       0.40259
  44    0.2165        0.0101        0.0000        5.9940        5.9940       5.983933       0.34860
  43    0.2613        0.0101        0.0000        5.9925        5.9925       5.982354       0.29770
  42    0.3336        0.0101        0.0000        5.9902        5.9902       5.980125       0.25991
  41    0.4307        0.0101        0.0000        5.9877        5.9877       5.977536       0.22503
  40    0.5894        0.0101        0.0000        5.9836        5.9836       5.973504       0.21442
  39     1.339        0.0101        0.0000        5.9651        5.9651       5.954994       0.20839
  38     1.782        0.0101        0.0000        5.9549        5.9549       5.944778       0.19451
  37     2.292        0.0112        0.0000        1.4616        1.4616       1.450369      74.43913
  36     2.964        0.0116        0.0000        1.3658        1.3658       1.354238       1.20674
  35     3.853        0.0118        0.0000        1.3258        1.3258       1.313946       0.38238
  34     5.035        0.0120        0.0000        1.3047        1.3047       1.292707       0.15172
  33     6.613        0.0121        0.0000        1.2926        1.2926       1.280561       0.06493
  32     8.786        0.0121        0.0000        1.2856        1.2856       1.273449       0.02762
  31     11.80        0.0121        0.0000        1.2812        1.2812       1.269021       0.01240
  30     15.07        0.0122        0.0000        1.2789        1.2789       1.266704       0.00598
  29     18.79        0.0122        0.0000        1.2775        1.2775       1.265299       0.00319
  28     23.16        0.0122        0.0000        1.2765        1.2765       1.264320       0.00189
  27     28.12        0.0122        0.0000        1.2758        1.2758       1.263582       0.00125
  26     33.73        0.0122        0.0000        1.2752        1.2752       1.263015       0.00085
  25     40.54        0.0122        0.0000        1.2744        1.2744       1.262235       0.00097
  24     48.69        0.0122        0.0000        1.2738        1.2738       1.261569       0.00069
  23     57.69        0.0122        0.0000        1.2733        1.2733       1.261046       0.00049
  22     68.43        0.0122        0.0000        1.2728        1.2728       1.260597       0.00035
  21     81.20        0.0122        0.0000        1.2724        1.2724       1.260210       0.00026
  20     96.49        0.0122        0.0000        1.2721        1.2721       1.259871       0.00019
  19     114.6        0.0122        0.0000        1.2718        1.2718       1.259590       0.00013
  18     136.5        0.0122        0.0000        1.2715        1.2715       1.259295       0.00011
  17     162.9        0.0122        0.0000        1.2712        1.2712       1.259019       0.00009
  16     196.4        0.0122        0.0000        1.2710        1.2710       1.258748       0.00007
  15     218.7        0.0122        0.0000        1.2708        1.2708       1.258578       0.00006
  14     243.0        0.0122        0.0000        1.2707        1.2707       1.258442       0.00005
  13     269.0        0.0122        0.0000        1.2705        1.2705       1.258278       0.00005
  12     297.5        0.0122        0.0000        1.2703        1.2703       1.258046       0.00007
  11     328.5        0.0122        0.0000        1.2699        1.2699       1.257719       0.00009
  10     361.9        0.0122        0.0000        1.2695        1.2695       1.257235       0.00012
   9     398.1        0.0122        0.0000        1.2688        1.2688       1.256536       0.00016
   8     437.6        0.0122        0.0000        1.2678        1.2678       1.255554       0.00021
   7     480.5        0.0123        0.0000        1.2665        1.2665       1.254212       0.00026
   6     533.0        0.0123        0.0000        1.2641        1.2642       1.251880       0.00038
   5     589.8        0.0123        0.0000        1.2606        1.2606       1.248294       0.00053
   4     651.6        0.0124        0.0000        1.2545        1.2545       1.242154       0.00084
   3     718.7        0.0124        0.0000        1.2451        1.2451       1.232665       0.00119
   2     792.3        0.0126        0.0000        1.2308        1.2309       1.218290       0.00165
   1     891.5        0.0128        0.0000        1.2038        1.2038       1.190975       0.00232
   0    1013.0        0.0132        0.0000        1.1613        1.1613       1.148085       0.00298

  Modules and versions used in this calculation:

       rrtmg_sw.1col.f90:  $Revision$                    rrtmg_sw_init.f90:  $Revision$        
     rrtmgsw_cldprop.f90:  $Revision$                  rrtmgsw_cldprmc.f90:  NOT USED          
     rrtmg_sw_reftra.f90:  $Revision$                  rrtmg_sw_spcvrt.f90:  NOT USED          
     rrtmg_sw_spcvmc.f90:  NOT USED                    rrtmgsw_setcoef.f90:  NOT USED          
     rrtmg_sw_taumol.f90:  $Revision$                  rrtmg_sw_vrtqdr.f90:  NOT USED          
                rrtatm.f:  NOT USED                             util_xxx.f:  NOT USED          
                 extra.f:  NOT USED                       rrtmg_sw_k_g.f90:  $Revision$        

