

 Wavenumbers:   820. - 50000. cm-1, ATM      1
 LEVEL PRESSURE   UPWARD FLUX   DIFDOWN FLUX  DIRDOWN FLUX  DOWNWARD FLUX   NET FLUX    HEATING RATE
          mb          W/m2          W/m2          W/m2        W/m2          W/m2       degree/day
  51    .06700      391.5071        0.0000      617.8126      617.8126     226.305436       0.00000
  50    .07753      391.5068        0.0013      617.7948      617.7962     226.289421      12.83673
  49    .09103      391.5063        0.0030      617.7782      617.7812     226.274876       9.09071
  48    0.1069      391.5059        0.0050      617.7588      617.7638     226.257968       9.00063
  47    0.1255      391.5053        0.0072      617.7352      617.7424     226.237041       9.48704
  46    0.1487      391.5048        0.0100      617.7026      617.7127     226.207890      10.62590
  45    0.1794      391.5041        0.0139      617.6545      617.6684     226.164383      11.94365
  44    0.2165      391.5033        0.0184      617.5928      617.6113     226.107924      12.84348
  43    0.2613      391.5026        0.0238      617.5133      617.5371     226.034458      13.84797
  42    0.3336      391.5018        0.0326      617.3703      617.4030     225.901169      15.54029
  41    0.4307      391.5012        0.0443      617.1679      617.2121     225.710992      16.53542
  40    0.5894      391.5011        0.0630      616.8134      616.8765     225.375370      17.84793
  39     1.339      391.5195        0.1479      614.9754      615.1233     223.603806      19.94460
  38     1.782      391.5436        0.1957      614.0075      614.2032     222.659684      17.97455
  37     2.292      391.5240        0.4476      595.1374      595.5850     204.061001     308.04269
  36     2.964      391.5732        0.5782      592.4799      593.0581     201.484904      32.33781
  35     3.853      391.6764        0.6992      590.5169      591.2161     199.539659      18.46073
  34     5.035      391.8434        0.8359      588.7645      589.6004     197.756978      12.73473
  33     6.613      392.0824        1.0055      587.0823      588.0878     196.005352       9.36420
  32     8.786      392.3955        1.2262      585.3958      586.6220     194.226494       6.90844
  31     11.80      392.8018        1.5363      583.5532      585.0895     192.287697       5.42802
  30     15.07      393.1887        1.8663      581.9518      583.8181     190.629427       4.28133
  29     18.79      393.5814        2.2367      580.3995      582.6362     189.054765       3.57024
  28     23.16      393.9890        2.6672      578.8025      581.4697     187.480733       3.04367
  27     28.12      394.3950        3.1573      577.1706      580.3278     185.932890       2.63123
  26     33.73      394.7615        3.7038      575.5575      579.2613     184.499761       2.15475
  25     40.54      395.1020        4.3621      573.7872      578.1493     183.047349       1.80188
  24     48.69      395.4133        5.1522      571.8666      577.0188     181.605471       1.49212
  23     57.69      395.6590        6.0160      569.9528      575.9688     180.309768       1.21453
  22     68.43      395.8472        7.0394      567.8760      574.9154     179.068207       0.97603
  21     81.20      395.9261        8.2529      565.6559      573.9088     177.982641       0.71733
  20     96.49      395.8856        9.6898      563.2473      572.9371     177.051544       0.51390
  19     114.6      395.7952       11.3804      560.2155      571.5959     175.800769       0.58402
  18     136.5      395.6406       13.3601      556.8520      570.2121     174.571481       0.47269
  17     162.9      395.4147       15.6834      553.0625      568.7459     173.331195       0.39645
  16     196.4      395.0294       18.6472      548.3930      567.0401     172.010728       0.33238
  15     218.7      394.7463       20.5631      545.2618      565.8249     171.078595       0.35390
  14     243.0      394.4261       22.6183      541.9432      564.5615     170.135386       0.32714
  13     269.0      394.0696       24.8145      538.1631      562.9775     168.907884       0.39820
  12     297.5      393.6784       27.1522      533.7811      560.9333     167.254902       0.49026
  11     328.5      393.2623       29.6377      528.6066      558.2443     164.981985       0.61800
  10     361.9      392.8269       32.2674      522.4317      554.6990     161.872095       0.78683
   9     398.1      392.3802       35.0447      515.0784      550.1230     157.742854       0.96202
   8     437.6      391.9366       37.9687      506.4584      544.4271     152.490528       1.12298
   7     480.5      391.5152       41.0373      496.6223      537.6596     146.144362       1.24636
   6     533.0      391.0979       44.7251      484.1298      528.8549     137.757042       1.34925
   5     589.8      390.8049       48.5940      470.6902      519.2841     128.479245       1.37713
   4     651.6      390.7283       52.6338      456.4346      509.0684     118.340094       1.38656
   3     718.7      390.9743       56.8372      441.6823      498.5195     107.545236       1.35661
   2     792.3      391.7579       61.1850      426.2607      487.4457      95.687829       1.35991
   1     891.5      393.9182       66.8129      406.4876      473.3005      79.382242       1.38753
   0    1013.0      398.7518       73.2379      384.9800      458.2179      59.466115       1.38288



 Wavenumbers:  2600. -  3250. cm-1, ATM      1
 LEVEL PRESSURE   UPWARD FLUX   DIFDOWN FLUX  DIRDOWN FLUX  DOWNWARD FLUX   NET FLUX    HEATING RATE
          mb          W/m2          W/m2          W/m2        W/m2          W/m2       degree/day
  51    .06700        0.0234        0.0000        5.4450        5.4450       5.421678       0.00000
  50    .07753        0.0234        0.0000        5.4450        5.4450       5.421670       0.00640
  49    .09103        0.0234        0.0000        5.4450        5.4450       5.421660       0.00627
  48    0.1069        0.0234        0.0000        5.4450        5.4450       5.421648       0.00613
  47    0.1255        0.0234        0.0000        5.4450        5.4450       5.421635       0.00599
  46    0.1487        0.0234        0.0000        5.4450        5.4450       5.421619       0.00608
  45    0.1794        0.0234        0.0000        5.4450        5.4450       5.421596       0.00625
  44    0.2165        0.0234        0.0000        5.4449        5.4449       5.421569       0.00612
  43    0.2613        0.0234        0.0000        5.4449        5.4449       5.421537       0.00600
  42    0.3336        0.0234        0.0000        5.4448        5.4448       5.421484       0.00617
  41    0.4307        0.0234        0.0000        5.4448        5.4448       5.421413       0.00620
  40    0.5894        0.0234        0.0000        5.4446        5.4446       5.421293       0.00637
  39     1.339        0.0234        0.0000        5.4439        5.4439       5.420586       0.00797
  38     1.782        0.0234        0.0000        5.4434        5.4434       5.420043       0.01034
  37     2.292        0.0234        0.0000        5.4427        5.4427       5.419327       0.01186
  36     2.964        0.0234        0.0000        5.4416        5.4416       5.418288       0.01304
  35     3.853        0.0234        0.0000        5.4402        5.4402       5.416811       0.01402
  34     5.035        0.0234        0.0000        5.4381        5.4381       5.414755       0.01468
  33     6.613        0.0234        0.0000        5.4353        5.4353       5.411974       0.01487
  32     8.786        0.0234        0.0000        5.4317        5.4317       5.408342       0.01411
  31     11.80        0.0234        0.0000        5.4269        5.4269       5.403562       0.01338
  30     15.07        0.0233        0.0000        5.4224        5.4224       5.399036       0.01169
  29     18.79        0.0233        0.0000        5.4180        5.4180       5.394625       0.01000
  28     23.16        0.0233        0.0000        5.4135        5.4135       5.390140       0.00867
  27     28.12        0.0233        0.0000        5.4088        5.4088       5.385493       0.00790
  26     33.73        0.0233        0.0000        5.4036        5.4036       5.380254       0.00788
  25     40.54        0.0233        0.0000        5.3966        5.3967       5.373315       0.00861
  24     48.69        0.0233        0.0000        5.3872        5.3872       5.363842       0.00980
  23     57.69        0.0233        0.0000        5.3754        5.3754       5.352063       0.01104
  22     68.43        0.0233        0.0000        5.3599        5.3599       5.336582       0.01217
  21     81.20        0.0233        0.0000        5.3401        5.3401       5.316759       0.01310
  20     96.49        0.0233        0.0000        5.3155        5.3155       5.292206       0.01355
  19     114.6        0.0233        0.0000        5.2584        5.2584       5.235112       0.02666
  18     136.5        0.0233        0.0000        5.2027        5.2027       5.179425       0.02141
  17     162.9        0.0233        0.0001        5.1494        5.1494       5.126098       0.01705
  16     196.4        0.0233        0.0001        5.0924        5.0925       5.069193       0.01432
  15     218.7        0.0233        0.0001        5.0540        5.0541       5.030738       0.01460
  14     243.0        0.0233        0.0001        5.0172        5.0173       4.994013       0.01274
  13     269.0        0.0233        0.0001        4.9731        4.9732       4.949851       0.01433
  12     297.5        0.0233        0.0001        4.9182        4.9183       4.894945       0.01628
  11     328.5        0.0234        0.0001        4.8471        4.8473       4.823893       0.01932
  10     361.9        0.0234        0.0001        4.7522        4.7523       4.728888       0.02404
   9     398.1        0.0234        0.0001        4.6248        4.6249       4.601501       0.02968
   8     437.6        0.0235        0.0001        4.4596        4.4597       4.436235       0.03533
   7     480.5        0.0236        0.0001        4.2559        4.2560       4.232414       0.04003
   6     533.0        0.0238        0.0001        3.9883        3.9885       3.964680       0.04307
   5     589.8        0.0241        0.0002        3.7091        3.7093       3.685174       0.04149
   4     651.6        0.0245        0.0002        3.4175        3.4176       3.393102       0.03994
   3     718.7        0.0251        0.0002        3.1124        3.1126       3.087430       0.03841
   2     792.3        0.0261        0.0002        2.7915        2.7917       2.765581       0.03691
   1     891.5        0.0280        0.0002        2.4004        2.4005       2.372540       0.03345
   0    1013.0        0.0317        0.0001        2.0171        2.0172       1.985549       0.02687



 Wavenumbers:  3250. -  4000. cm-1, ATM      1
 LEVEL PRESSURE   UPWARD FLUX   DIFDOWN FLUX  DIRDOWN FLUX  DOWNWARD FLUX   NET FLUX    HEATING RATE
          mb          W/m2          W/m2          W/m2        W/m2          W/m2       degree/day
  51    .06700        0.0002        0.0000        9.1795        9.1795       9.179289       0.00000
  50    .07753        0.0002        0.0000        9.1747        9.1747       9.174419       3.90287
  49    .09103        0.0002        0.0000        9.1713        9.1713       9.171100       2.07468
  48    0.1069        0.0002        0.0000        9.1689        9.1689       9.168693       1.28112
  47    0.1255        0.0002        0.0000        9.1668        9.1668       9.166573       0.96122
  46    0.1487        0.0002        0.0000        9.1645        9.1645       9.164300       0.82829
  45    0.1794        0.0002        0.0000        9.1619        9.1619       9.161631       0.73288
  44    0.2165        0.0002        0.0000        9.1592        9.1592       9.158942       0.61167
  43    0.2613        0.0002        0.0000        9.1565        9.1565       9.156245       0.50841
  42    0.3336        0.0002        0.0000        9.1528        9.1528       9.152548       0.43101
  41    0.4307        0.0002        0.0000        9.1487        9.1487       9.148450       0.35634
  40    0.5894        0.0002        0.0000        9.1428        9.1428       9.142557       0.31334
  39     1.339        0.0002        0.0000        9.1196        9.1196       9.119375       0.26099
  38     1.782        0.0002        0.0000        9.1090        9.1090       9.108792       0.20149
  37     2.292        0.0002        0.0000        5.2680        5.2680       5.267784      63.61711
  36     2.964        0.0003        0.0000        4.8969        4.8969       4.896614       4.65930
  35     3.853        0.0003        0.0000        4.6981        4.6981       4.697885       1.88598
  34     5.035        0.0003        0.0000        4.5663        4.5663       4.566070       0.94164
  33     6.613        0.0003        0.0000        4.4720        4.4720       4.471702       0.50449
  32     8.786        0.0003        0.0000        4.4020        4.4020       4.401762       0.27162
  31     11.80        0.0003        0.0000        4.3463        4.3463       4.346028       0.15604
  30     15.07        0.0003        0.0000        4.3093        4.3094       4.309098       0.09534
  29     18.79        0.0003        0.0000        4.2815        4.2815       4.281236       0.06317
  28     23.16        0.0003        0.0000        4.2575        4.2576       4.257301       0.04628
  27     28.12        0.0002        0.0000        4.2354        4.2354       4.235146       0.03766
  26     33.73        0.0002        0.0000        4.2145        4.2146       4.214305       0.03133
  25     40.54        0.0002        0.0000        4.1818        4.1818       4.181549       0.04064
  24     48.69        0.0002        0.0000        4.1481        4.1481       4.147856       0.03487
  23     57.69        0.0002        0.0000        4.1162        4.1163       4.116058       0.02981
  22     68.43        0.0002        0.0000        4.0837        4.0838       4.083552       0.02555
  21     81.20        0.0002        0.0001        4.0511        4.0512       4.050937       0.02155
  20     96.49        0.0002        0.0001        4.0177        4.0178       4.017553       0.01843
  19     114.6        0.0002        0.0001        3.9798        3.9799       3.979705       0.01767
  18     136.5        0.0002        0.0001        3.9363        3.9364       3.936175       0.01674
  17     162.9        0.0002        0.0001        3.8867        3.8868       3.886609       0.01584
  16     196.4        0.0001        0.0001        3.8187        3.8188       3.818699       0.01709
  15     218.7        0.0001        0.0001        3.7481        3.7482       3.748081       0.02681
  14     243.0        0.0001        0.0001        3.6724        3.6726       3.672468       0.02622
  13     269.0        0.0001        0.0002        3.5551        3.5553       3.555189       0.03804
  12     297.5        0.0001        0.0002        3.3845        3.3847       3.384569       0.05060
  11     328.5        0.0001        0.0002        3.1574        3.1575       3.157465       0.06175
  10     361.9        0.0001        0.0002        2.8758        2.8760       2.875886       0.07124
   9     398.1        0.0001        0.0002        2.5555        2.5557       2.555597       0.07462
   8     437.6        0.0000        0.0002        2.2091        2.2092       2.209178       0.07407
   7     480.5        0.0000        0.0001        1.8499        1.8501       1.850065       0.07053
   6     533.0        0.0000        0.0001        1.4403        1.4405       1.440457       0.06589
   5     589.8        0.0000        0.0001        1.0459        1.0460       1.046033       0.05855
   4     651.6        0.0000        0.0001        0.6915        0.6915       0.691535       0.04848
   3     718.7        0.0000        0.0001        0.4140        0.4140       0.414024       0.03488
   2     792.3        0.0000        0.0000        0.2058        0.2058       0.205790       0.02388
   1     891.5        0.0000        0.0000        0.0559        0.0559       0.055904       0.01275
   0    1013.0        0.0002        0.0000        0.0062        0.0062       0.006042       0.00346



 Wavenumbers:  4000. -  4650. cm-1, ATM      1
 LEVEL PRESSURE   UPWARD FLUX   DIFDOWN FLUX  DIRDOWN FLUX  DOWNWARD FLUX   NET FLUX    HEATING RATE
          mb          W/m2          W/m2          W/m2        W/m2          W/m2       degree/day
  51    .06700        1.1532        0.0000       10.7795       10.7795       9.626319       0.00000
  50    .07753        1.1532        0.0000       10.7795       10.7795       9.626318       0.00079
  49    .09103        1.1532        0.0000       10.7795       10.7795       9.626317       0.00078
  48    0.1069        1.1532        0.0000       10.7795       10.7795       9.626316       0.00076
  47    0.1255        1.1532        0.0000       10.7795       10.7795       9.626314       0.00074
  46    0.1487        1.1532        0.0000       10.7795       10.7795       9.626312       0.00075
  45    0.1794        1.1532        0.0000       10.7795       10.7795       9.626309       0.00077
  44    0.2165        1.1532        0.0000       10.7795       10.7795       9.626306       0.00076
  43    0.2613        1.1532        0.0000       10.7795       10.7795       9.626302       0.00074
  42    0.3336        1.1532        0.0000       10.7795       10.7795       9.626295       0.00076
  41    0.4307        1.1532        0.0000       10.7795       10.7795       9.626286       0.00077
  40    0.5894        1.1532        0.0000       10.7795       10.7795       9.626271       0.00079
  39     1.339        1.1532        0.0000       10.7794       10.7794       9.626183       0.00100
  38     1.782        1.1532        0.0000       10.7793       10.7793       9.626113       0.00132
  37     2.292        1.1532        0.0000       10.7792       10.7792       9.626020       0.00155
  36     2.964        1.1532        0.0000       10.7791       10.7791       9.625880       0.00175
  35     3.853        1.1532        0.0000       10.7788       10.7789       9.625673       0.00196
  34     5.035        1.1532        0.0000       10.7785       10.7786       9.625368       0.00218
  33     6.613        1.1532        0.0000       10.7781       10.7781       9.624919       0.00240
  32     8.786        1.1532        0.0000       10.7774       10.7774       9.624256       0.00257
  31     11.80        1.1532        0.0001       10.7763       10.7764       9.623214       0.00292
  30     15.07        1.1532        0.0001       10.7751       10.7752       9.621993       0.00315
  29     18.79        1.1532        0.0001       10.7736       10.7737       9.620517       0.00335
  28     23.16        1.1531        0.0001       10.7717       10.7718       9.618686       0.00354
  27     28.12        1.1531        0.0001       10.7695       10.7696       9.616471       0.00377
  26     33.73        1.1531        0.0001       10.7667       10.7669       9.613741       0.00410
  25     40.54        1.1531        0.0002       10.7630       10.7631       9.610041       0.00459
  24     48.69        1.1531        0.0002       10.7580       10.7582       9.605117       0.00510
  23     57.69        1.1531        0.0002       10.7521       10.7523       9.599286       0.00547
  22     68.43        1.1530        0.0003       10.7448       10.7450       9.591988       0.00574
  21     81.20        1.1530        0.0003       10.7357       10.7360       9.583017       0.00593
  20     96.49        1.1530        0.0004       10.7247       10.7251       9.572120       0.00601
  19     114.6        1.1531        0.0004       10.6958       10.6963       9.543203       0.01350
  18     136.5        1.1532        0.0005       10.6680       10.6685       9.515333       0.01072
  17     162.9        1.1533        0.0006       10.6386       10.6393       9.485969       0.00939
  16     196.4        1.1535        0.0007       10.6019       10.6026       9.449135       0.00927
  15     218.7        1.1537        0.0008       10.5737       10.5745       9.420802       0.01076
  14     243.0        1.1540        0.0009       10.5434       10.5443       9.390332       0.01057
  13     269.0        1.1544        0.0010       10.5040       10.5050       9.350658       0.01287
  12     297.5        1.1549        0.0011       10.4511       10.4522       9.297309       0.01582
  11     328.5        1.1557        0.0012       10.3789       10.3801       9.224414       0.01982
  10     361.9        1.1567        0.0013       10.2813       10.2826       9.125880       0.02493
   9     398.1        1.1581        0.0014       10.1537       10.1551       8.997037       0.03002
   8     437.6        1.1599        0.0016        9.9970        9.9985       8.838687       0.03386
   7     480.5        1.1622        0.0017        9.8184        9.8201       8.657878       0.03551
   6     533.0        1.1659        0.0018        9.5905        9.5923       8.426352       0.03725
   5     589.8        1.1715        0.0020        9.3186        9.3206       8.149114       0.04115
   4     651.6        1.1798        0.0021        8.9713        8.9734       7.793521       0.04863
   3     718.7        1.1922        0.0022        8.5610        8.5632       7.370976       0.05310
   2     792.3        1.2108        0.0023        8.1157        8.1180       6.907191       0.05319
   1     891.5        1.2476        0.0025        7.5727        7.5752       6.327537       0.04933
   0    1013.0        1.3177        0.0026        7.0104        7.0130       5.695398       0.04389



 Wavenumbers:  4650. -  5150. cm-1, ATM      1
 LEVEL PRESSURE   UPWARD FLUX   DIFDOWN FLUX  DIRDOWN FLUX  DOWNWARD FLUX   NET FLUX    HEATING RATE
          mb          W/m2          W/m2          W/m2        W/m2          W/m2       degree/day
  51    .06700        0.2938        0.0000       10.2033       10.2033       9.909576       0.00000
  50    .07753        0.2938        0.0000       10.2031       10.2031       9.909340       0.18910
  49    .09103        0.2938        0.0000       10.2028       10.2028       9.909045       0.18437
  48    0.1069        0.2938        0.0000       10.2025       10.2025       9.908708       0.17940
  47    0.1255        0.2938        0.0000       10.2021       10.2021       9.908323       0.17434
  46    0.1487        0.2938        0.0000       10.2016       10.2016       9.907842       0.17545
  45    0.1794        0.2938        0.0000       10.2010       10.2010       9.907192       0.17859
  44    0.2165        0.2938        0.0000       10.2002       10.2002       9.906432       0.17286
  43    0.2613        0.2938        0.0000       10.1993       10.1993       9.905546       0.16698
  42    0.3336        0.2938        0.0000       10.1979       10.1979       9.904113       0.16710
  41    0.4307        0.2938        0.0000       10.1960       10.1960       9.902271       0.16011
  40    0.5894        0.2938        0.0000       10.1932       10.1932       9.899396       0.15291
  39     1.339        0.2938        0.0000       10.1816       10.1816       9.887798       0.13057
  38     1.782        0.2938        0.0000       10.1760       10.1760       9.882266       0.10532
  37     2.292        0.2937        0.0000       10.1705       10.1706       9.876807       0.09042
  36     2.964        0.2937        0.0000       10.1646       10.1646       9.870881       0.07439
  35     3.853        0.2937        0.0000       10.1584       10.1584       9.864663       0.05900
  34     5.035        0.2937        0.0000       10.1520       10.1521       9.858325       0.04528
  33     6.613        0.2937        0.0001       10.1455       10.1456       9.851865       0.03453
  32     8.786        0.2937        0.0001       10.1385       10.1386       9.844853       0.02723
  31     11.80        0.2937        0.0001       10.1294       10.1295       9.835812       0.02531
  30     15.07        0.2937        0.0001       10.1195       10.1196       9.825934       0.02550
  29     18.79        0.2937        0.0001       10.1075       10.1076       9.813930       0.02722
  28     23.16        0.2936        0.0001       10.0921       10.0923       9.798632       0.02958
  27     28.12        0.2936        0.0002       10.0730       10.0732       9.779547       0.03244
  26     33.73        0.2936        0.0002       10.0499       10.0501       9.756468       0.03470
  25     40.54        0.2936        0.0002       10.0199       10.0202       9.726588       0.03707
  24     48.69        0.2935        0.0003        9.9817        9.9820       9.688453       0.03946
  23     57.69        0.2935        0.0003        9.9381        9.9385       9.644967       0.04076
  22     68.43        0.2935        0.0004        9.8854        9.8858       9.592313       0.04139
  21     81.20        0.2934        0.0005        9.8230        9.8235       9.530041       0.04115
  20     96.49        0.2934        0.0005        9.7512        9.7518       9.458401       0.03954
  19     114.6        0.2933        0.0006        9.6648        9.6654       9.372048       0.04032
  18     136.5        0.2933        0.0007        9.5732        9.5739       9.280602       0.03516
  17     162.9        0.2933        0.0009        9.4770        9.4779       9.184559       0.03070
  16     196.4        0.2933        0.0010        9.3663        9.3673       9.074031       0.02782
  15     218.7        0.2933        0.0011        9.2953        9.2964       9.003088       0.02693
  14     243.0        0.2934        0.0012        9.2203        9.2216       8.928199       0.02597
  13     269.0        0.2934        0.0014        9.1344        9.1357       8.842280       0.02787
  12     297.5        0.2936        0.0015        9.0343        9.0358       8.742174       0.02969
  11     328.5        0.2938        0.0016        8.9158        8.9174       8.623610       0.03224
  10     361.9        0.2942        0.0018        8.7739        8.7757       8.481493       0.03596
   9     398.1        0.2947        0.0019        8.6026        8.6045       8.309814       0.04000
   8     437.6        0.2954        0.0020        8.3970        8.3991       8.103714       0.04407
   7     480.5        0.2963        0.0022        8.1536        8.1558       7.859426       0.04798
   6     533.0        0.2979        0.0023        7.8280        7.8303       7.532391       0.05261
   5     589.8        0.3002        0.0025        7.4625        7.4649       7.164713       0.05458
   4     651.6        0.3036        0.0026        7.0647        7.0673       6.763668       0.05484
   3     718.7        0.3084        0.0027        6.6594        6.6621       6.353654       0.05153
   2     792.3        0.3154        0.0028        6.2498        6.2526       5.937158       0.04777
   1     891.5        0.3288        0.0029        5.7389        5.7418       5.413010       0.04460
   0    1013.0        0.3534        0.0030        5.1948        5.1978       4.844370       0.03948



 Wavenumbers:  5150. -  6150. cm-1, ATM      1
 LEVEL PRESSURE   UPWARD FLUX   DIFDOWN FLUX  DIRDOWN FLUX  DOWNWARD FLUX   NET FLUX    HEATING RATE
          mb          W/m2          W/m2          W/m2        W/m2          W/m2       degree/day
  51    .06700        2.5022        0.0000       25.5798       25.5798      23.077588       0.00000
  50    .07753        2.5022        0.0000       25.5798       25.5798      23.077588       0.00019
  49    .09103        2.5022        0.0000       25.5798       25.5798      23.077588       0.00018
  48    0.1069        2.5022        0.0000       25.5798       25.5798      23.077588       0.00018
  47    0.1255        2.5022        0.0000       25.5798       25.5798      23.077587       0.00017
  46    0.1487        2.5022        0.0000       25.5798       25.5798      23.077587       0.00018
  45    0.1794        2.5022        0.0000       25.5798       25.5798      23.077586       0.00018
  44    0.2165        2.5022        0.0000       25.5798       25.5798      23.077585       0.00018
  43    0.2613        2.5022        0.0000       25.5798       25.5798      23.077584       0.00017
  42    0.3336        2.5022        0.0000       25.5798       25.5798      23.077583       0.00018
  41    0.4307        2.5022        0.0000       25.5798       25.5798      23.077581       0.00018
  40    0.5894        2.5022        0.0000       25.5798       25.5798      23.077577       0.00019
  39     1.339        2.5022        0.0000       25.5797       25.5798      23.077556       0.00024
  38     1.782        2.5022        0.0000       25.5797       25.5797      23.077540       0.00031
  37     2.292        2.5030        0.0001       22.1777       22.1778      19.674826      56.35781
  36     2.964        2.5033        0.0001       21.7466       21.7467      19.243365       5.41615
  35     3.853        2.5036        0.0001       21.5186       21.5187      19.015118       2.16611
  34     5.035        2.5038        0.0002       21.3703       21.3705      18.866727       1.06004
  33     6.613        2.5039        0.0002       21.2658       21.2660      18.762088       0.55940
  32     8.786        2.5040        0.0003       21.1892       21.1894      18.685413       0.29778
  31     11.80        2.5041        0.0003       21.1287       21.1290      18.624926       0.16935
  30     15.07        2.5041        0.0004       21.0889       21.0893      18.585236       0.10247
  29     18.79        2.5041        0.0005       21.0593       21.0598      18.555668       0.06704
  28     23.16        2.5041        0.0006       21.0343       21.0348      18.530716       0.04825
  27     28.12        2.5041        0.0007       21.0115       21.0122      18.508084       0.03847
  26     33.73        2.5041        0.0008       20.9905       20.9913      18.487192       0.03141
  25     40.54        2.5041        0.0010       20.9562       20.9572      18.453048       0.04236
  24     48.69        2.5041        0.0011       20.9211       20.9222      18.418092       0.03617
  23     57.69        2.5042        0.0013       20.8883       20.8896      18.385472       0.03058
  22     68.43        2.5042        0.0016       20.8551       20.8567      18.352492       0.02593
  21     81.20        2.5042        0.0018       20.8216       20.8234      18.319213       0.02199
  20     96.49        2.5042        0.0022       20.7875       20.7897      18.285491       0.01861
  19     114.6        2.5042        0.0026       20.7502       20.7528      18.248555       0.01725
  18     136.5        2.5042        0.0030       20.7083       20.7114      18.207154       0.01592
  17     162.9        2.5042        0.0036       20.6628       20.6664      18.162248       0.01435
  16     196.4        2.5041        0.0043       20.6046       20.6089      18.104799       0.01446
  15     218.7        2.5041        0.0048       20.5469       20.5517      18.047555       0.02173
  14     243.0        2.5041        0.0053       20.4841       20.4894      17.985265       0.02160
  13     269.0        2.5041        0.0058       20.3779       20.3837      17.879632       0.03427
  12     297.5        2.5042        0.0064       20.2006       20.2070      17.702839       0.05243
  11     328.5        2.5044        0.0070       19.9184       19.9254      17.421000       0.07663
  10     361.9        2.5047        0.0075       19.4929       19.5004      16.995709       0.10760
   9     398.1        2.5053        0.0080       18.9000       18.9080      16.402678       0.13816
   8     437.6        2.5063        0.0085       18.1482       18.1568      15.650443       0.16083
   7     480.5        2.5078        0.0089       17.2972       17.3062      14.798321       0.16735
   6     533.0        2.5107        0.0094       16.3150       16.3244      13.813751       0.15839
   5     589.8        2.5153        0.0099       15.4374       15.4473      12.932059       0.13087
   4     651.6        2.5228        0.0104       14.6976       14.7081      12.185202       0.10213
   3     718.7        2.5349        0.0111       14.0788       14.0898      11.554968       0.07920
   2     792.3        2.5543        0.0117       13.4757       13.4874      10.933160       0.07131
   1     891.5        2.5961        0.0125       12.6949       12.7075      10.111349       0.06993
   0    1013.0        2.6908        0.0134       11.9114       11.9249       9.234073       0.06091



 Wavenumbers:  6150. -  7700. cm-1, ATM      1
 LEVEL PRESSURE   UPWARD FLUX   DIFDOWN FLUX  DIRDOWN FLUX  DOWNWARD FLUX   NET FLUX    HEATING RATE
          mb          W/m2          W/m2          W/m2        W/m2          W/m2       degree/day
  51    .06700        3.8548        0.0000       47.3109       47.3109      43.456074       0.00000
  50    .07753        3.8548        0.0000       47.3108       47.3108      43.456058       0.01303
  49    .09103        3.8548        0.0000       47.3108       47.3108      43.456037       0.01277
  48    0.1069        3.8548        0.0000       47.3108       47.3108      43.456014       0.01250
  47    0.1255        3.8548        0.0000       47.3108       47.3108      43.455987       0.01223
  46    0.1487        3.8548        0.0000       47.3107       47.3107      43.455953       0.01241
  45    0.1794        3.8548        0.0000       47.3107       47.3107      43.455906       0.01276
  44    0.2165        3.8548        0.0000       47.3106       47.3106      43.455851       0.01252
  43    0.2613        3.8548        0.0000       47.3105       47.3106      43.455786       0.01228
  42    0.3336        3.8548        0.0000       47.3104       47.3104      43.455679       0.01256
  41    0.4307        3.8547        0.0000       47.3102       47.3103      43.455536       0.01242
  40    0.5894        3.8547        0.0001       47.3100       47.3100      43.455303       0.01240
  39     1.339        3.8547        0.0001       47.3087       47.3089      43.454201       0.01240
  38     1.782        3.8546        0.0002       47.3080       47.3082      43.453555       0.01230
  37     2.292        3.8554        0.0004       41.6732       41.6736      37.818159      93.33685
  36     2.964        3.8558        0.0005       41.0026       41.0031      37.147367       8.42047
  35     3.853        3.8560        0.0006       40.6514       40.6520      36.796012       3.33443
  34     5.035        3.8561        0.0007       40.4275       40.4282      36.572106       1.59949
  33     6.613        3.8562        0.0009       40.2726       40.2735      36.417321       0.82748
  32     8.786        3.8562        0.0011       40.1611       40.1622      36.306078       0.43203
  31     11.80        3.8560        0.0014       40.0749       40.0764      36.220334       0.24006
  30     15.07        3.8558        0.0017       40.0194       40.0211      36.165320       0.14203
  29     18.79        3.8556        0.0021       39.9787       39.9807      36.125168       0.09104
  28     23.16        3.8553        0.0025       39.9447       39.9472      36.091914       0.06430
  27     28.12        3.8549        0.0029       39.9142       39.9172      36.062305       0.05033
  26     33.73        3.8545        0.0035       39.8867       39.8901      36.035664       0.04006
  25     40.54        3.8540        0.0041       39.8429       39.8470      35.993041       0.05288
  24     48.69        3.8534        0.0049       39.7993       39.8041      35.950765       0.04375
  23     57.69        3.8527        0.0057       39.7594       39.7651      35.912401       0.03596
  22     68.43        3.8518        0.0067       39.7197       39.7264      35.874516       0.02978
  21     81.20        3.8508        0.0079       39.6799       39.6878      35.836938       0.02483
  20     96.49        3.8497        0.0093       39.6395       39.6488      35.799144       0.02086
  19     114.6        3.8482        0.0110       39.5939       39.6049      35.756679       0.01983
  18     136.5        3.8465        0.0130       39.5409       39.5539      35.707356       0.01897
  17     162.9        3.8445        0.0154       39.4790       39.4944      35.649830       0.01839
  16     196.4        3.8419        0.0185       39.3906       39.4092      35.567217       0.02079
  15     218.7        3.8403        0.0205       39.2917       39.3122      35.471937       0.03617
  14     243.0        3.8385        0.0227       39.1800       39.2027      35.364207       0.03736
  13     269.0        3.8367        0.0251       38.9870       39.0120      35.175338       0.06127
  12     297.5        3.8349        0.0275       38.6630       38.6905      34.855609       0.09483
  11     328.5        3.8332        0.0300       38.1445       38.1745      34.341318       0.13983
  10     361.9        3.8318        0.0324       37.3537       37.3861      33.554337       0.19911
   9     398.1        3.8309        0.0347       36.2290       36.2637      32.432745       0.26131
   8     437.6        3.8311        0.0366       34.7497       34.7863      30.955257       0.31590
   7     480.5        3.8328        0.0383       32.9702       33.0085      29.175702       0.34950
   6     533.0        3.8379        0.0399       30.7382       30.7781      26.940235       0.35962
   5     589.8        3.8484        0.0412       28.4847       28.5259      24.677514       0.33586
   4     651.6        3.8679        0.0423       26.2832       26.3254      22.457535       0.30359
   3     718.7        3.9008        0.0433       24.2466       24.2899      20.389112       0.25994
   2     792.3        3.9556        0.0444       22.3612       22.4056      18.450009       0.22239
   1     891.5        4.0747        0.0457       20.2738       20.3195      16.244774       0.18765
   0    1013.0        4.3342        0.0474       18.3178       18.3652      14.030996       0.15371



 Wavenumbers:  7700. -  8050. cm-1, ATM      1
 LEVEL PRESSURE   UPWARD FLUX   DIFDOWN FLUX  DIRDOWN FLUX  DOWNWARD FLUX   NET FLUX    HEATING RATE
          mb          W/m2          W/m2          W/m2        W/m2          W/m2       degree/day
  51    .06700        5.5394        0.0000       11.1810       11.1810       5.641604       0.00000
  50    .07753        5.5394        0.0000       11.1809       11.1809       5.641582       0.01712
  49    .09103        5.5394        0.0000       11.1809       11.1809       5.641555       0.01678
  48    0.1069        5.5394        0.0000       11.1809       11.1809       5.641525       0.01643
  47    0.1255        5.5394        0.0000       11.1809       11.1809       5.641489       0.01608
  46    0.1487        5.5394        0.0000       11.1808       11.1808       5.641444       0.01631
  45    0.1794        5.5394        0.0000       11.1808       11.1808       5.641383       0.01679
  44    0.2165        5.5394        0.0000       11.1807       11.1807       5.641311       0.01647
  43    0.2613        5.5394        0.0000       11.1806       11.1806       5.641225       0.01616
  42    0.3336        5.5394        0.0000       11.1805       11.1805       5.641083       0.01653
  41    0.4307        5.5395        0.0000       11.1803       11.1804       5.640895       0.01635
  40    0.5894        5.5395        0.0000       11.1801       11.1801       5.640588       0.01633
  39     1.339        5.5397        0.0001       11.1788       11.1789       5.639135       0.01636
  38     1.782        5.5399        0.0001       11.1781       11.1782       5.638281       0.01625
  37     2.292        5.5400        0.0002       11.1771       11.1773       5.637293       0.01636
  36     2.964        5.5402        0.0003       11.1759       11.1762       5.635996       0.01628
  35     3.853        5.5404        0.0003       11.1744       11.1747       5.634282       0.01626
  34     5.035        5.5408        0.0004       11.1724       11.1728       5.632006       0.01626
  33     6.613        5.5413        0.0005       11.1697       11.1702       5.628966       0.01625
  32     8.786        5.5419        0.0006       11.1661       11.1668       5.624871       0.01590
  31     11.80        5.5428        0.0008       11.1611       11.1619       5.619017       0.01639
  30     15.07        5.5438        0.0010       11.1556       11.1566       5.612737       0.01621
  29     18.79        5.5450        0.0012       11.1494       11.1506       5.605651       0.01607
  28     23.16        5.5463        0.0014       11.1423       11.1437       5.597386       0.01598
  27     28.12        5.5478        0.0017       11.1341       11.1358       5.587950       0.01604
  26     33.73        5.5495        0.0020       11.1249       11.1269       5.577412       0.01584
  25     40.54        5.5516        0.0024       11.1140       11.1163       5.564712       0.01576
  24     48.69        5.5541        0.0028       11.1008       11.1036       5.549449       0.01580
  23     57.69        5.5569        0.0033       11.0863       11.0896       5.532744       0.01566
  22     68.43        5.5602        0.0038       11.0693       11.0731       5.512933       0.01557
  21     81.20        5.5642        0.0045       11.0491       11.0536       5.489452       0.01552
  20     96.49        5.5690        0.0053       11.0253       11.0306       5.461642       0.01535
  19     114.6        5.5748        0.0063       10.9972       11.0035       5.428726       0.01537
  18     136.5        5.5817        0.0074       10.9643       10.9718       5.390063       0.01487
  17     162.9        5.5901        0.0088       10.9257       10.9345       5.344489       0.01457
  16     196.4        5.6011        0.0106       10.8766       10.8871       5.286069       0.01471
  15     218.7        5.6085        0.0117       10.8447       10.8565       5.247995       0.01446
  14     243.0        5.6166        0.0130       10.8105       10.8235       5.206920       0.01425
  13     269.0        5.6256        0.0143       10.7738       10.7882       5.162594       0.01438
  12     297.5        5.6355        0.0158       10.7345       10.7503       5.114782       0.01418
  11     328.5        5.6466        0.0174       10.6922       10.7096       5.063051       0.01407
  10     361.9        5.6589        0.0191       10.6468       10.6659       5.006989       0.01418
   9     398.1        5.6728        0.0209       10.5978       10.6187       4.945866       0.01424
   8     437.6        5.6885        0.0229       10.5446       10.5674       4.878946       0.01431
   7     480.5        5.7064        0.0249       10.4866       10.5115       4.805076       0.01451
   6     533.0        5.7303        0.0275       10.4128       10.4404       4.710037       0.01529
   5     589.8        5.7588        0.0303       10.3298       10.3601       4.601277       0.01614
   4     651.6        5.7934        0.0332       10.2351       10.2683       4.474958       0.01727
   3     718.7        5.8355        0.0363       10.1266       10.1629       4.327384       0.01855
   2     792.3        5.8877        0.0396       10.0017       10.0413       4.153636       0.01993
   1     891.5        5.9709        0.0440        9.8195        9.8635       3.892590       0.02221
   0    1013.0        6.0915        0.0491        9.5843        9.6334       3.541850       0.02435



 Wavenumbers:  8050. - 12850. cm-1, ATM      1
 LEVEL PRESSURE   UPWARD FLUX   DIFDOWN FLUX  DIRDOWN FLUX  DOWNWARD FLUX   NET FLUX    HEATING RATE
          mb          W/m2          W/m2          W/m2        W/m2          W/m2       degree/day
  51    .06700       91.3960        0.0000      156.5418      156.5418      65.145713       0.00000
  50    .07753       91.3960        0.0000      156.5417      156.5417      65.145713      -0.00000
  49    .09103       91.3960        0.0001      156.5417      156.5417      65.145713      -0.00000
  48    0.1069       91.3960        0.0001      156.5416      156.5417      65.145713       0.00000
  47    0.1255       91.3960        0.0002      156.5415      156.5417      65.145713       0.00000
  46    0.1487       91.3959        0.0002      156.5414      156.5417      65.145713       0.00000
  45    0.1794       91.3959        0.0003      156.5413      156.5416      65.145713      -0.00000
  44    0.2165       91.3959        0.0004      156.5412      156.5416      65.145713       0.00000
  43    0.2613       91.3958        0.0005      156.5410      156.5415      65.145713       0.00000
  42    0.3336       91.3957        0.0008      156.5407      156.5414      65.145713      -0.00000
  41    0.4307       91.3956        0.0010      156.5403      156.5413      65.145713       0.00000
  40    0.5894       91.3954        0.0015      156.5397      156.5412      65.145713       0.00000
  39     1.339       91.3946        0.0036      156.5367      156.5403      65.145713      -0.00000
  38     1.782       91.3941        0.0048      156.5350      156.5398      65.145713       0.00000
  37     2.292       91.3916        0.0112      156.5260      156.5373      65.145713       0.00000
  36     2.964       91.3902        0.0147      156.5211      156.5359      65.145713      -0.00000
  35     3.853       91.3888        0.0180      156.5165      156.5345      65.145713       0.00000
  34     5.035       91.3873        0.0218      156.5112      156.5330      65.145713      -0.00000
  33     6.613       91.3854        0.0266      156.5046      156.5312      65.145713      -0.00000
  32     8.786       91.3830        0.0327      156.4960      156.5287      65.145713       0.00000
  31     11.80       91.3795        0.0414      156.4839      156.5252      65.145713       0.00000
  30     15.07       91.3758        0.0506      156.4709      156.5215      65.145713       0.00000
  29     18.79       91.3717        0.0611      156.4563      156.5174      65.145713       0.00000
  28     23.16       91.3668        0.0733      156.4392      156.5125      65.145713       0.00000
  27     28.12       91.3612        0.0872      156.4197      156.5069      65.145713      -0.00000
  26     33.73       91.3550        0.1028      156.3979      156.5007      65.145713       0.00000
  25     40.54       91.3474        0.1217      156.3714      156.4931      65.145713       0.00000
  24     48.69       91.3383        0.1445      156.3395      156.4840      65.145713      -0.00000
  23     57.69       91.3283        0.1696      156.3044      156.4740      65.145713      -0.00000
  22     68.43       91.3163        0.1996      156.2625      156.4621      65.145713       0.00000
  21     81.20       91.3021        0.2353      156.2125      156.4478      65.145713       0.00000
  20     96.49       91.2850        0.2779      156.1529      156.4307      65.145713      -0.00000
  19     114.6       91.2730        0.3284      155.8251      156.1535      64.880512       0.12383
  18     136.5       91.2565        0.3883      155.5273      155.9156      64.659090       0.08514
  17     162.9       91.2340        0.4598      155.2427      155.7025      64.468499       0.06092
  16     196.4       91.2018        0.5528      154.9126      155.4654      64.263590       0.05158
  15     218.7       91.1801        0.6139      154.6409      155.2548      64.074653       0.07173
  14     243.0       91.1559        0.6804      154.3710      155.0514      63.895512       0.06213
  13     269.0       91.1307        0.7524      153.9994      154.7518      63.621136       0.08901
  12     297.5       91.1058        0.8300      153.4892      154.3192      63.213351       0.12094
  11     328.5       91.0829        0.9135      152.7860      153.6995      62.616638       0.16224
  10     361.9       91.0647        1.0026      151.8173      152.8199      61.755173       0.21796
   9     398.1       91.0560        1.0973      150.5073      151.6045      60.548576       0.28111
   8     437.6       91.0637        1.1973      148.7907      149.9881      58.924370       0.34727
   7     480.5       91.0989        1.3022      146.6027      147.9049      56.806010       0.41604
   6     533.0       91.1936        1.4274      143.4847      144.9121      53.718562       0.49667
   5     589.8       91.3792        1.5578      139.7687      141.3265      49.947279       0.55978
   4     651.6       91.7144        1.6920      135.5001      137.1921      45.477738       0.61122
   3     718.7       92.2667        1.8305      130.8319      132.6624      40.395649       0.63868
   2     792.3       93.1722        1.9707      125.7086      127.6793      34.507095       0.67535
   1     891.5       95.0861        2.1490      118.9819      121.1309      26.044742       0.72011
   0    1013.0       98.9021        2.3528      111.7687      114.1215      15.219453       0.75166



 Wavenumbers: 12850. - 16000. cm-1, ATM      1
 LEVEL PRESSURE   UPWARD FLUX   DIFDOWN FLUX  DIRDOWN FLUX  DOWNWARD FLUX   NET FLUX    HEATING RATE
          mb          W/m2          W/m2          W/m2        W/m2          W/m2       degree/day
  51    .06700       78.9557        0.0000       98.0872       98.0872      19.131583       0.00000
  50    .07753       78.9557        0.0001       98.0864       98.0864      19.130792       0.63432
  49    .09103       78.9557        0.0002       98.0853       98.0855      19.129798       0.62122
  48    0.1069       78.9557        0.0003       98.0841       98.0843      19.128656       0.60786
  47    0.1255       78.9557        0.0004       98.0826       98.0830      19.127344       0.59480
  46    0.1487       78.9557        0.0005       98.0809       98.0814      19.125688       0.60354
  45    0.1794       78.9557        0.0007       98.0784       98.0792      19.123436       0.61832
  44    0.2165       78.9558        0.0010       98.0756       98.0766      19.120787       0.60268
  43    0.2613       78.9559        0.0012       98.0723       98.0736      19.117671       0.58726
  42    0.3336       78.9561        0.0017       98.0670       98.0687      19.112586       0.59282
  41    0.4307       78.9565        0.0023       98.0602       98.0625      19.106012       0.57166
  40    0.5894       78.9573        0.0033       98.0496       98.0529      19.095653       0.55087
  39     1.339       78.9637        0.0081       98.0043       98.0125      19.048741       0.52815
  38     1.782       78.9696        0.0110       97.9793       97.9902      19.020594       0.53586
  37     2.292       78.9750        0.0255       97.9350       97.9605      18.985553       0.58038
  36     2.964       78.9884        0.0334       97.8893       97.9227      18.934315       0.64320
  35     3.853       79.0112        0.0409       97.8284       97.8693      18.858027       0.72398
  34     5.035       79.0462        0.0494       97.7446       97.7941      18.747850       0.78706
  33     6.613       79.0953        0.0601       97.6320       97.6920      18.596746       0.80780
  32     8.786       79.1593        0.0739       97.4859       97.5598      18.400499       0.76215
  31     11.80       79.2428        0.0934       97.2928       97.3861      18.143345       0.71995
  30     15.07       79.3228        0.1141       97.1030       97.2172      17.894334       0.64290
  29     18.79       79.4046        0.1375       96.9046       97.0421      17.637469       0.58239
  28     23.16       79.4902        0.1647       96.6911       96.8558      17.365577       0.52575
  27     28.12       79.5764        0.1958       96.4679       96.6637      17.087305       0.47304
  26     33.73       79.6563        0.2306       96.2475       96.4781      16.821817       0.39917
  25     40.54       79.7334        0.2727       96.0151       96.2878      16.554333       0.33184
  24     48.69       79.8077        0.3234       95.7688       96.0922      16.284506       0.27923
  23     57.69       79.8710        0.3791       95.5315       95.9105      16.039478       0.22968
  22     68.43       79.9268        0.4454       95.2848       95.7302      15.803375       0.18561
  21     81.20       79.9662        0.5246       95.0385       95.5630      15.596833       0.13648
  20     96.49       79.9882        0.6190       94.7894       95.4084      15.420237       0.09747
  19     114.6       80.0169        0.7325       94.5109       95.2433      15.226440       0.09049
  18     136.5       80.0393        0.8669       94.1977       95.0646      15.025311       0.07734
  17     162.9       80.0552        1.0270       93.8371       94.8641      14.808933       0.06916
  16     196.4       80.0531        1.2346       93.3918       94.6265      14.573322       0.05931
  15     218.7       80.0440        1.3710       93.1038       94.4748      14.430832       0.05410
  14     243.0       80.0301        1.5192       92.7933       94.3125      14.282389       0.05148
  13     269.0       80.0119        1.6798       92.4566       94.1364      14.124426       0.05124
  12     297.5       79.9898        1.8534       92.0903       93.9436      13.953805       0.05060
  11     328.5       79.9663        2.0409       91.6881       93.7290      13.762736       0.05195
  10     361.9       79.9429        2.2429       91.2445       93.4874      13.544500       0.05522
   9     398.1       79.9222        2.4602       90.7513       93.2115      13.289325       0.05945
   8     437.6       79.9083        2.6935       90.1963       92.8898      12.981443       0.06583
   7     480.5       79.9071        2.9432       89.5649       92.5081      12.601019       0.07471
   6     533.0       79.9321        3.2498       88.7260       91.9758      12.043723       0.08965
   5     589.8       79.9971        3.5783       87.7477       91.3260      11.328897       0.10610
   4     651.6       80.1207        3.9278       86.6126       90.5404      10.419638       0.12434
   3     718.7       80.3260        4.2978       85.3150       89.6129       9.286869       0.14236
   2     792.3       80.6596        4.6865       83.8352       88.5216       7.862014       0.16341
   1     891.5       81.3367        5.1989       81.7400       86.9389       5.602255       0.19229
   0    1013.0       82.5294        5.7988       79.2090       85.0078       2.478379       0.21691



 Wavenumbers: 16000. - 22650. cm-1, ATM      1
 LEVEL PRESSURE   UPWARD FLUX   DIFDOWN FLUX  DIRDOWN FLUX  DOWNWARD FLUX   NET FLUX    HEATING RATE
          mb          W/m2          W/m2          W/m2        W/m2          W/m2       degree/day
  51    .06700      140.3038        0.0000      156.3892      156.3892      16.085477       0.00000
  50    .07753      140.3037        0.0004      156.3887      156.3891      16.085330       0.11786
  49    .09103      140.3037        0.0009      156.3879      156.3888      16.085116       0.13368
  48    0.1069      140.3037        0.0015      156.3871      156.3885      16.084829       0.15244
  47    0.1255      140.3037        0.0021      156.3861      156.3882      16.084446       0.17376
  46    0.1487      140.3038        0.0030      156.3847      156.3877      16.083881       0.20590
  45    0.1794      140.3039        0.0041      156.3828      156.3869      16.082998       0.24244
  44    0.2165      140.3041        0.0054      156.3805      156.3859      16.081800       0.27247
  43    0.2613      140.3045        0.0070      156.3776      156.3846      16.080175       0.30633
  42    0.3336      140.3052        0.0096      156.3726      156.3823      16.077085       0.36023
  41    0.4307      140.3064        0.0131      156.3657      156.3788      16.072428       0.40494
  40    0.5894      140.3090        0.0188      156.3537      156.3725      16.063546       0.47235
  39     1.339      140.3313        0.0458      156.2834      156.3292      15.997923       0.73880
  38     1.782      140.3519        0.0616      156.2324      156.2940      15.942020       1.06430
  37     2.292      140.3683        0.1433      156.0862      156.2294      15.861105       1.34017
  36     2.964      140.4152        0.1876      155.9576      156.1452      15.730030       1.64538
  35     3.853      140.4961        0.2297      155.7884      156.0181      15.522053       1.97374
  34     5.035      140.6204        0.2778      155.5544      155.8322      15.211775       2.21650
  33     6.613      140.7953        0.3374      155.2385      155.5759      14.780586       2.30513
  32     8.786      141.0236        0.4150      154.8281      155.2431      14.219524       2.17896
  31     11.80      141.3210        0.5241      154.2844      154.8085      13.487501       2.04943
  30     15.07      141.6061        0.6403      153.7491      154.3894      12.783336       1.81802
  29     18.79      141.8971        0.7711      153.1877      153.9587      12.061651       1.63628
  28     23.16      142.2012        0.9234      152.5812      153.5046      11.303366       1.46628
  27     28.12      142.5072        1.0972      151.9444      153.0416      10.534360       1.30726
  26     33.73      142.7895        1.2915      151.3101      152.6015       9.812052       1.08601
  25     40.54      143.0610        1.5261      150.6331      152.1591       9.098172       0.88565
  24     48.69      143.3207        1.8085      149.9036      151.7121       8.391440       0.73136
  23     57.69      143.5406        2.1184      149.1853      151.3037       7.763101       0.58897
  22     68.43      143.7320        2.4870      148.4182      150.9053       7.173273       0.46368
  21     81.20      143.8634        2.9260      147.6228      150.5488       6.685361       0.32240
  20     96.49      143.9304        3.4484      146.7845      150.2329       6.302482       0.21132
  19     114.6      143.9647        4.0670      145.8482      149.9152       5.950540       0.16433
  18     136.5      143.9740        4.7974      144.7809      149.5783       5.604318       0.13313
  17     162.9      143.9567        5.6631      143.5511      149.2142       5.257541       0.11084
  16     196.4      143.8729        6.7801      142.0382      148.8183       4.945363       0.07858
  15     218.7      143.7956        7.5100      141.0766      148.5866       4.791002       0.05861
  14     243.0      143.7011        8.3000      140.0490      148.3490       4.647914       0.04963
  13     269.0      143.5879        9.1523      138.9536      148.1059       4.517973       0.04215
  12     297.5      143.4556       10.0689      137.7882      147.8571       4.401568       0.03452
  11     328.5      143.3081       11.0542      136.5414      147.5956       4.287522       0.03101
  10     361.9      143.1455       12.1090      135.2117      147.3208       4.175288       0.02840
   9     398.1      142.9676       13.2375      133.7931      147.0306       4.063075       0.02614
   8     437.6      142.7757       14.4416      132.2807      146.7223       3.946652       0.02489
   7     480.5      142.5702       15.7237      130.6701      146.3938       3.823614       0.02416
   6     533.0      142.3204       17.2898      128.6987      145.9885       3.668142       0.02501
   5     589.8      142.0588       18.9633      126.5827      145.5460       3.487235       0.02685
   4     651.6      141.7908       20.7456      124.3133      145.0589       3.268130       0.02996
   3     718.7      141.5208       22.6381      121.8851      144.5232       3.002457       0.03339
   2     792.3      141.2620       24.6384      119.2890      143.9274       2.665430       0.03865
   1     891.5      140.9734       27.2925      115.7923      143.0848       2.111492       0.04714
   0    1013.0      140.7039       30.4112      111.6401      142.0513       1.347407       0.05305



 Wavenumbers: 22650. - 29000. cm-1, ATM      1
 LEVEL PRESSURE   UPWARD FLUX   DIFDOWN FLUX  DIRDOWN FLUX  DOWNWARD FLUX   NET FLUX    HEATING RATE
          mb          W/m2          W/m2          W/m2        W/m2          W/m2       degree/day
  51    .06700       58.6820        0.0000       59.0156       59.0156       0.333649       0.00000
  50    .07753       58.6819        0.0005       59.0151       59.0155       0.333649       0.00000
  49    .09103       58.6818        0.0010       59.0144       59.0154       0.333649      -0.00000
  48    0.1069       58.6816        0.0017       59.0136       59.0153       0.333649       0.00000
  47    0.1255       58.6815        0.0025       59.0127       59.0151       0.333649      -0.00000
  46    0.1487       58.6813        0.0035       59.0115       59.0149       0.333649       0.00000
  45    0.1794       58.6810        0.0048       59.0099       59.0147       0.333649       0.00000
  44    0.2165       58.6807        0.0063       59.0080       59.0144       0.333649      -0.00000
  43    0.2613       58.6804        0.0082       59.0058       59.0140       0.333649       0.00000
  42    0.3336       58.6798        0.0113       59.0022       59.0134       0.333649       0.00000
  41    0.4307       58.6790        0.0154       58.9973       59.0127       0.333649       0.00000
  40    0.5894       58.6777        0.0220       58.9894       59.0114       0.333649       0.00000
  39     1.339       58.6717        0.0535       58.9518       59.0053       0.333649       0.00000
  38     1.782       58.6681        0.0720       58.9297       59.0017       0.333649      -0.00000
  37     2.292       58.6497        0.1674       58.8160       58.9834       0.333649      -0.00000
  36     2.964       58.6398        0.2192       58.7542       58.9734       0.333649       0.00000
  35     3.853       58.6303        0.2685       58.6954       58.9639       0.333649      -0.00000
  34     5.035       58.6195        0.3247       58.6284       58.9531       0.333649       0.00000
  33     6.613       58.6060        0.3945       58.5451       58.9397       0.333649       0.00000
  32     8.786       58.5885        0.4854       58.4367       58.9221       0.333649      -0.00000
  31     11.80       58.5639        0.6133       58.2842       58.8975       0.333649       0.00000
  30     15.07       58.5377        0.7494       58.1219       58.8713       0.333649      -0.00000
  29     18.79       58.5082        0.9025       57.9394       58.8418       0.333649      -0.00000
  28     23.16       58.4739        1.0806       57.7270       58.8076       0.333649      -0.00000
  27     28.12       58.4348        1.2835       57.4850       58.7685       0.333649       0.00000
  26     33.73       58.3913        1.5097       57.2152       58.7249       0.333649      -0.00000
  25     40.54       58.3388        1.7818       56.8906       58.6725       0.333649       0.00000
  24     48.69       58.2760        2.1082       56.5015       58.6096       0.333649       0.00000
  23     57.69       58.2074        2.4644       56.0766       58.5410       0.333649      -0.00000
  22     68.43       58.1262        2.8855       55.5744       58.4599       0.333649       0.00000
  21     81.20       58.0304        3.3828       54.9812       58.3640       0.333649       0.00000
  20     96.49       57.9174        3.9691       54.2819       58.2510       0.333649      -0.00000
  19     114.6       57.7849        4.6562       53.4623       58.1185       0.333649       0.00000
  18     136.5       57.6302        5.4582       52.5057       57.9639       0.333649       0.00000
  17     162.9       57.4494        6.3957       51.3873       57.7830       0.333649      -0.00000
  16     196.4       57.2201        7.5835       49.9702       57.5538       0.333649       0.00000
  15     218.7       57.0727        8.3469       49.0595       57.4064       0.333649       0.00000
  14     243.0       56.9153        9.1618       48.0871       57.2490       0.333649      -0.00000
  13     269.0       56.7479       10.0280       47.0536       57.0816       0.333649       0.00000
  12     297.5       56.5707       10.9446       45.9598       56.9044       0.333649       0.00000
  11     328.5       56.3834       11.9130       44.8041       56.7171       0.333649       0.00000
  10     361.9       56.1865       12.9306       43.5895       56.5201       0.333649       0.00000
   9     398.1       55.9798       13.9978       42.3157       56.3135       0.333649      -0.00000
   8     437.6       55.7639       15.1124       40.9851       56.0975       0.333649      -0.00000
   7     480.5       55.5390       16.2721       39.6005       55.8726       0.333649       0.00000
   6     533.0       55.2712       17.6518       37.9530       55.6048       0.333649       0.00000
   5     589.8       54.9932       19.0823       36.2446       55.3269       0.333649      -0.00000
   4     651.6       54.7062       20.5573       34.4826       55.0399       0.333649       0.00000
   3     718.7       54.4114       22.0707       32.6744       54.7450       0.333649      -0.00000
   2     792.3       54.1105       23.6125       30.8317       54.4442       0.333649       0.00000
   1     891.5       53.7277       25.5701       28.4913       54.0613       0.333649      -0.00000
   0    1013.0       53.3011       27.7450       25.8898       53.6347       0.333649       0.00000



 Wavenumbers: 29000. - 38000. cm-1, ATM      1
 LEVEL PRESSURE   UPWARD FLUX   DIFDOWN FLUX  DIRDOWN FLUX  DOWNWARD FLUX   NET FLUX    HEATING RATE
          mb          W/m2          W/m2          W/m2        W/m2          W/m2       degree/day
  51    .06700        8.7911        0.0000       20.8114       20.8114      12.020224       0.00000
  50    .07753        8.7910        0.0003       20.8070       20.8074      12.016415       3.05312
  49    .09103        8.7907        0.0007       20.8009       20.8016      12.010875       3.46264
  48    0.1069        8.7905        0.0012       20.7928       20.7939      12.003461       3.94634
  47    0.1255        8.7902        0.0017       20.7820       20.7837      11.993552       4.49268
  46    0.1487        8.7899        0.0024       20.7665       20.7688      11.978981       5.31123
  45    0.1794        8.7894        0.0033       20.7424       20.7457      11.956304       6.22534
  44    0.2165        8.7889        0.0044       20.7103       20.7147      11.925765       6.94714
  43    0.2613        8.7884        0.0056       20.6675       20.6731      11.884747       7.73156
  42    0.3336        8.7875        0.0077       20.5880       20.5957      11.808143       8.93129
  41    0.4307        8.7865        0.0104       20.4722       20.4826      11.696125       9.73977
  40    0.5894        8.7851        0.0147       20.2637       20.2784      11.493312      10.78532
  39     1.339        8.7828        0.0332       19.0984       19.1315      10.348767      12.88550
  38     1.782        8.7844        0.0427       18.4394       18.4821       9.697735      12.39461
  37     2.292        8.7637        0.0948       17.7062       17.8009       9.037198      10.94021
  36     2.964        8.7635        0.1184       16.9606       17.0791       8.315550       9.05887
  35     3.853        8.7732        0.1381       16.1822       16.3202       7.547061       7.29310
  34     5.035        8.7927        0.1588       15.3953       15.5541       6.761467       5.61196
  33     6.613        8.8225        0.1838       14.6333       14.8171       5.994600       4.09968
  32     8.786        8.8625        0.2161       13.9142       14.1303       5.267770       2.82274
  31     11.80        8.9152        0.2609       13.2085       13.4694       4.554137       1.99795
  30     15.07        8.9661        0.3082       12.6669       12.9751       4.008936       1.40760
  29     18.79        9.0189        0.3604       12.1973       12.5577       3.538829       1.06588
  28     23.16        9.0748        0.4204       11.7635       12.1839       3.109045       0.83106
  27     28.12        9.1322        0.4879       11.3639       11.8518       2.719563       0.66209
  26     33.73        9.1852        0.5625       11.0078       11.5703       2.385061       0.50293
  25     40.54        9.2355        0.6519       10.6613       11.3133       2.077791       0.38120
  24     48.69        9.2830        0.7583       10.3167       11.0750       1.792042       0.29571
  23     57.69        9.3220        0.8736        9.9994       10.8729       1.550943       0.22599
  22     68.43        9.3536        1.0090        9.6791       10.6881       1.334480       0.17017
  21     81.20        9.3689        1.1691        9.3616       10.5308       1.161861       0.11406
  20     96.49        9.3659        1.3575        9.0388       10.3963       1.030448       0.07253
  19     114.6        9.3527        1.5753        8.6908       10.2661       0.913466       0.05462
  18     136.5        9.3322        1.8243        8.3091       10.1334       0.801211       0.04316
  17     162.9        9.3047        2.1083        7.8877        9.9960       0.691293       0.03513
  16     196.4        9.2581        2.4608        7.3918        9.8526       0.594495       0.02437
  15     218.7        9.2245        2.6821        7.0897        9.7718       0.547302       0.01792
  14     243.0        9.1878        2.9135        6.7780        9.6915       0.503721       0.01512
  13     269.0        9.1476        3.1541        6.4581        9.6122       0.464586       0.01270
  12     297.5        9.1041        3.4028        6.1313        9.5341       0.430086       0.01023
  11     328.5        9.0586        3.6587        5.7969        9.4557       0.397053       0.00898
  10     361.9        9.0116        3.9199        5.4574        9.3772       0.365624       0.00795
   9     398.1        8.9634        4.1846        5.1146        9.2992       0.335849       0.00694
   8     437.6        8.9143        4.4519        4.7696        9.2215       0.307145       0.00614
   7     480.5        8.8648        4.7197        4.4250        9.1447       0.279894       0.00535
   6     533.0        8.8081        5.0251        4.0332        9.0583       0.250189       0.00478
   5     589.8        8.7522        5.3263        3.6474        8.9736       0.221426       0.00427
   4     651.6        8.6979        5.6202        3.2710        8.8912       0.193281       0.00385
   3     718.7        8.6460        5.9042        2.9075        8.8118       0.165711       0.00346
   2     792.3        8.5971        6.1759        2.5600        8.7358       0.138722       0.00310
   1     891.5        8.5412        6.4947        2.1519        8.6466       0.105394       0.00284
   0    1013.0        8.4880        6.8145        1.7421        8.5566       0.068581       0.00256



 Wavenumbers: 38000. - 50000. cm-1, ATM      1
 LEVEL PRESSURE   UPWARD FLUX   DIFDOWN FLUX  DIRDOWN FLUX  DOWNWARD FLUX   NET FLUX    HEATING RATE
          mb          W/m2          W/m2          W/m2        W/m2          W/m2       degree/day
  51    .06700        0.0076        0.0000        1.2836        1.2836       1.276005       0.00000
  50    .07753        0.0076        0.0001        1.2812        1.2812       1.273669       1.87256
  49    .09103        0.0075        0.0002        1.2777        1.2778       1.270335       2.08357
  48    0.1069        0.0074        0.0002        1.2731        1.2734       1.265955       2.33176
  47    0.1255        0.0073        0.0004        1.2672        1.2675       1.260197       2.61031
  46    0.1487        0.0072        0.0005        1.2586        1.2591       1.251867       3.03636
  45    0.1794        0.0071        0.0007        1.2455        1.2462       1.239093       3.50672
  44    0.2165        0.0069        0.0009        1.2282        1.2291       1.222160       3.85201
  43    0.2613        0.0067        0.0011        1.2054        1.2065       1.199802       4.21437
  42    0.3336        0.0064        0.0015        1.1639        1.1654       1.158961       4.76172
  41    0.4307        0.0061        0.0020        1.1051        1.1071       1.100976       5.04165
  40    0.5894        0.0056        0.0026        1.0039        1.0064       1.000886       5.32265
  39     1.339        0.0043        0.0035        0.5438        0.5473       0.543064       5.15425
  38     1.782        0.0042        0.0032        0.3635        0.3667       0.362484       3.43795
  37     2.292        0.0017        0.0047        0.2317        0.2364       0.234606       2.11799
  36     2.964        0.0010        0.0039        0.1422        0.1461       0.145075       1.12389
  35     3.853        0.0006        0.0028        0.0837        0.0865       0.085866       0.56191
  34     5.035        0.0004        0.0020        0.0475        0.0495       0.049102       0.26262
  33     6.613        0.0003        0.0014        0.0265        0.0279       0.027639       0.11474
  32     8.786        0.0002        0.0009        0.0140        0.0149       0.014757       0.05003
  31     11.80        0.0001        0.0006        0.0064        0.0069       0.006829       0.02220
  30     15.07        0.0000        0.0003        0.0030        0.0033       0.003297       0.00912
  29     18.79        0.0000        0.0002        0.0014        0.0016       0.001570       0.00392
  28     23.16        0.0000        0.0001        0.0006        0.0007       0.000715       0.00165
  27     28.12        0.0000        0.0001        0.0003        0.0003       0.000315       0.00068
  26     33.73        0.0000        0.0000        0.0001        0.0001       0.000139       0.00027
  25     40.54        0.0000        0.0000        0.0000        0.0001       0.000057       0.00010
  24     48.69        0.0000        0.0000        0.0000        0.0000       0.000021       0.00004
  23     57.69        0.0000        0.0000        0.0000        0.0000       0.000008       0.00001
  22     68.43        0.0000        0.0000        0.0000        0.0000       0.000003       0.00000
  21     81.20        0.0000        0.0000        0.0000        0.0000       0.000001       0.00000
  20     96.49        0.0000        0.0000        0.0000        0.0000       0.000000       0.00000
  19     114.6        0.0000        0.0000        0.0000        0.0000       0.000000       0.00000
  18     136.5        0.0000        0.0000        0.0000        0.0000       0.000000       0.00000
  17     162.9        0.0000        0.0000        0.0000        0.0000       0.000000       0.00000
  16     196.4        0.0000        0.0000        0.0000        0.0000       0.000000       0.00000
  15     218.7        0.0000        0.0000        0.0000        0.0000       0.000000       0.00000
  14     243.0        0.0000        0.0000        0.0000        0.0000       0.000000       0.00000
  13     269.0        0.0000        0.0000        0.0000        0.0000       0.000000       0.00000
  12     297.5        0.0000        0.0000        0.0000        0.0000       0.000000       0.00000
  11     328.5        0.0000        0.0000        0.0000        0.0000       0.000000       0.00000
  10     361.9        0.0000        0.0000        0.0000        0.0000       0.000000       0.00000
   9     398.1        0.0000        0.0000        0.0000        0.0000       0.000000       0.00000
   8     437.6        0.0000        0.0000        0.0000        0.0000       0.000000       0.00000
   7     480.5        0.0000        0.0000        0.0000        0.0000       0.000000       0.00000
   6     533.0        0.0000        0.0000        0.0000        0.0000       0.000000       0.00000
   5     589.8        0.0000        0.0000        0.0000        0.0000       0.000000       0.00000
   4     651.6        0.0000        0.0000        0.0000        0.0000       0.000000       0.00000
   3     718.7        0.0000        0.0000        0.0000        0.0000       0.000000       0.00000
   2     792.3        0.0000        0.0000        0.0000        0.0000       0.000000       0.00000
   1     891.5        0.0000        0.0000        0.0000        0.0000       0.000000       0.00000
   0    1013.0        0.0000        0.0000        0.0000        0.0000       0.000000       0.00000



 Wavenumbers:   820. -  2600. cm-1, ATM      1
 LEVEL PRESSURE   UPWARD FLUX   DIFDOWN FLUX  DIRDOWN FLUX  DOWNWARD FLUX   NET FLUX    HEATING RATE
          mb          W/m2          W/m2          W/m2        W/m2          W/m2       degree/day
  51    .06700        0.0040        0.0000        6.0047        6.0047       6.000658       0.00000
  50    .07753        0.0040        0.0000        6.0009        6.0009       5.996878       3.02937
  49    .09103        0.0040        0.0000        6.0001        6.0001       5.996088       0.49378
  48    0.1069        0.0040        0.0000        5.9992        5.9992       5.995213       0.46572
  47    0.1255        0.0040        0.0000        5.9982        5.9982       5.994232       0.44470
  46    0.1487        0.0040        0.0000        5.9970        5.9970       5.993054       0.42941
  45    0.1794        0.0040        0.0000        5.9956        5.9956       5.991588       0.40259
  44    0.2165        0.0040        0.0000        5.9940        5.9940       5.990056       0.34860
  43    0.2613        0.0040        0.0000        5.9925        5.9925       5.988476       0.29770
  42    0.3336        0.0040        0.0000        5.9902        5.9902       5.986247       0.25991
  41    0.4307        0.0040        0.0000        5.9877        5.9877       5.983659       0.22503
  40    0.5894        0.0040        0.0000        5.9836        5.9836       5.979627       0.21442
  39     1.339        0.0040        0.0000        5.9651        5.9651       5.961116       0.20839
  38     1.782        0.0040        0.0000        5.9549        5.9549       5.950900       0.19451
  37     2.292        0.0050        0.0000        1.1480        1.1480       1.142963      79.63198
  36     2.964        0.0054        0.0000        1.0476        1.0476       1.042182       1.26510
  35     3.853        0.0056        0.0000        1.0025        1.0025       0.996847       0.43023
  34     5.035        0.0057        0.0000        0.9778        0.9778       0.972066       0.17702
  33     6.613        0.0058        0.0000        0.9634        0.9634       0.957585       0.07742
  32     8.786        0.0058        0.0000        0.9549        0.9549       0.949009       0.03331
  31     11.80        0.0059        0.0000        0.9495        0.9495       0.943632       0.01505
  30     15.07        0.0059        0.0000        0.9467        0.9467       0.940807       0.00729
  29     18.79        0.0059        0.0000        0.9450        0.9450       0.939090       0.00389
  28     23.16        0.0059        0.0000        0.9438        0.9438       0.937893       0.00231
  27     28.12        0.0059        0.0000        0.9429        0.9429       0.936990       0.00153
  26     33.73        0.0059        0.0000        0.9422        0.9422       0.936295       0.00104
  25     40.54        0.0059        0.0000        0.9413        0.9413       0.935340       0.00119
  24     48.69        0.0059        0.0000        0.9405        0.9405       0.934525       0.00084
  23     57.69        0.0059        0.0000        0.9398        0.9398       0.933886       0.00060
  22     68.43        0.0059        0.0000        0.9393        0.9393       0.933338       0.00043
  21     81.20        0.0059        0.0000        0.9388        0.9388       0.932868       0.00031
  20     96.49        0.0059        0.0000        0.9384        0.9384       0.932458       0.00023
  19     114.6        0.0059        0.0000        0.9381        0.9381       0.932134       0.00015
  18     136.5        0.0059        0.0000        0.9377        0.9377       0.931795       0.00013
  17     162.9        0.0059        0.0000        0.9374        0.9374       0.931479       0.00010
  16     196.4        0.0059        0.0000        0.9371        0.9371       0.931166       0.00008
  15     218.7        0.0059        0.0000        0.9369        0.9369       0.930961       0.00008
  14     243.0        0.0059        0.0000        0.9367        0.9367       0.930796       0.00006
  13     269.0        0.0059        0.0000        0.9365        0.9365       0.930572       0.00007
  12     297.5        0.0059        0.0000        0.9362        0.9362       0.930215       0.00011
  11     328.5        0.0059        0.0000        0.9356        0.9356       0.929638       0.00016
  10     361.9        0.0060        0.0000        0.9346        0.9346       0.928680       0.00024
   9     398.1        0.0060        0.0000        0.9331        0.9331       0.927144       0.00036
   8     437.6        0.0060        0.0000        0.9308        0.9308       0.924808       0.00050
   7     480.5        0.0060        0.0000        0.9273        0.9273       0.921293       0.00069
   6     533.0        0.0060        0.0000        0.9209        0.9209       0.914875       0.00103
   5     589.8        0.0061        0.0000        0.9110        0.9110       0.904876       0.00148
   4     651.6        0.0062        0.0000        0.8943        0.8943       0.888139       0.00229
   3     718.7        0.0063        0.0000        0.8697        0.8697       0.863355       0.00311
   2     792.3        0.0066        0.0000        0.8350        0.8350       0.828393       0.00401
   1     891.5        0.0071        0.0000        0.7740        0.7741       0.767007       0.00522
   0    1013.0        0.0078        0.0000        0.6882        0.6882       0.680368       0.00602

  Modules and versions used in this calculation:

       rrtmg_sw.1col.f90:  $Revision$                    rrtmg_sw_init.f90:  $Revision$        
     rrtmgsw_cldprop.f90:  $Revision$                  rrtmgsw_cldprmc.f90:  NOT USED          
     rrtmg_sw_reftra.f90:  $Revision$                  rrtmg_sw_spcvrt.f90:  NOT USED          
     rrtmg_sw_spcvmc.f90:  NOT USED                    rrtmgsw_setcoef.f90:  NOT USED          
     rrtmg_sw_taumol.f90:  $Revision$                  rrtmg_sw_vrtqdr.f90:  NOT USED          
                rrtatm.f:  NOT USED                             util_xxx.f:  NOT USED          
                 extra.f:  NOT USED                       rrtmg_sw_k_g.f90:  $Revision$        

